%OpenBCI Raw EXG Data
%Number of channels = 16
%Sample Rate = 125 Hz
%Board = OpenBCI_GUI$BoardCytonSerialDaisy
Sample Index, EXG Channel 0, EXG Channel 1, EXG Channel 2, EXG Channel 3, EXG Channel 4, EXG Channel 5, EXG Channel 6, EXG Channel 7, EXG Channel 8, EXG Channel 9, EXG Channel 10, EXG Channel 11, EXG Channel 12, EXG Channel 13, EXG Channel 14, EXG Channel 15, Accel Channel 0, Accel Channel 1, Accel Channel 2, Not Used, Digital Channel 0 (D11), Digital Channel 1 (D12), Digital Channel 2 (D13), Digital Channel 3 (D17), Not Used, Digital Channel 4 (D18), Analog Channel 0, Analog Channel 1, Analog Channel 2, Timestamp, Marker Channel, Timestamp (Formatted)
0.0, -21057.55609960033, 5918.920745720952, 26694.062554128475, -13525.53230828432, -53026.69740041464, 39070.89401136566, -23622.91051422483, 62023.58746809811, 0.0, 0.0, 0.0, 0.0, 0.0, 0.0, 0.0, 0.0, -0.063, 0.48, 0.10400000000000001, 192.0, 126.0, 8.0, 15.0, 0.0, 3.0, 64.0, 0.0, 0.0, 0.0, 1.744742900679258E9, 0.0, 2025-04-15 13:48:20.679
0.0, -10515.869917377224, 2972.11146022218, 13374.188646577437, -6711.066569217035, -25124.321892776716, 19498.633682564938, -11789.76288911854, 31309.76483938275, -2986.5953906292193, -10064.364679380022, -4928.984335539858, 4413.530756656022, 2299.368655606348, 2374.47051697618, 6568.104811680891, -93750.01117587223, -0.134, 0.9580000000000001, 0.218, 192.0, 125.5, 104.0, 14.5, 120.0, 3.0, 104.0, 0.0, 0.0, 0.0, 1.7447429007805336E9, 0.0, 2025-04-15 13:48:20.780
2.0, -21026.2636573629, 5944.737010566832, 26735.27917090406, -13423.429539612478, -50235.99269819173, 38996.641516285126, -23609.834743718475, 62666.58010084392, -5871.602102709067, -20157.965440507585, -9845.921080818305, 8836.404542494362, 4674.710890616285, 4754.640728788463, 13286.34629086808, -187500.02235174447, -0.134, 0.9580000000000001, 0.218, 192.0, 0.0, 0.0, 0.0, 0.0, 0.0, 0.0, 0.0, 0.0, 0.0, 1.7447429007875805E9, 0.0, 2025-04-15 13:48:20.787
4.0, -21023.64850326163, 5926.073303946651, 26746.43269138726, -13407.358635349112, -50373.388871358504, 38991.09828366021, -23587.39359228535, 62622.36835031133, -5855.665308912434, -20137.31242863088, -9856.158179778837, 8844.875853642923, 4662.730355588241, 4739.553301281131, 13225.99658083875, -187500.02235174447, -0.134, 0.9580000000000001, 0.218, 192.0, 0.0, 0.0, 0.0, 0.0, 0.0, 0.0, 0.0, 0.0, 0.0, 1.7447429007935994E9, 0.0, 2025-04-15 13:48:20.793
6.0, -21034.757320255914, 5963.6912898649325, 26734.47450810367, -13419.294466888246, -50243.145256417425, 39021.183731697056, -23611.756993741634, 62735.803453422006, -5872.518524231735, -20159.88769053074, -9838.790874337063, 8837.969164606235, 4674.442669682821, 4758.5522840681415, 13283.462915833345, -187500.02235174447, -0.134, 0.9580000000000001, 0.218, 192.0, 0.0, 0.0, 0.0, 0.0, 0.0, 0.0, 0.0, 0.0, 0.0, 1.7447429008016555E9, 0.0, 2025-04-15 13:48:20.801
8.0, -21020.183982871054, 5944.826417544654, 26745.180993697762, -13396.138059632547, -50368.60559804507, 39024.871769532176, -23578.832874158965, 62683.67918535223, -5858.012242080241, -20136.194841408116, -9855.845255356462, 8838.974993106722, 4659.82462880905, 4743.621318771997, 13230.869261130007, -187500.02235174447, -0.13, 0.964, 0.23, 192.0, 125.5, 120.0, 15.0, 16.0, 3.5, 24.0, 0.0, 0.0, 0.0, 1.744742900810711E9, 0.0, 2025-04-15 13:48:20.810
10.0, -21021.659198005105, 5994.223772790882, 26748.399644899328, -13390.751289218819, -50202.84506116451, 39076.616057946216, -23577.692935191746, 62800.75762280913, -5854.592425178579, -20141.55926007739, -9821.17769970628, 8860.142095105899, 4683.808050609595, 4776.768955799217, 13303.803003287674, -187500.02235174447, -0.13, 0.964, 0.23, 192.0, 0.0, 0.0, 0.0, 0.0, 0.0, 0.0, 0.0, 0.0, 0.0, 1.7447429008187363E9, 0.0, 2025-04-15 13:48:20.818
12.0, -21029.16938414209, 5961.456115419402, 26741.24708667363, -13386.4597542834, -50305.7748443812, 39056.901819336636, -23579.503426492625, 62742.53132850306, -5841.561358161135, -20127.991751193018, -9837.382714436379, 8858.8903974164, 4670.575817892053, 4761.592121314064, 13260.15004636646, -187500.02235174447, -0.13, 0.964, 0.23, 192.0, 0.0, 0.0, 0.0, 0.0, 0.0, 0.0, 0.0, 0.0, 0.0, 1.744742900825766E9, 0.0, 2025-04-15 13:48:20.825
14.0, -21047.319000639796, 6007.5677642307, 26734.09452844793, -13397.79208872224, -50055.74823090413, 39106.45563679405, -23585.94072889575, 62894.433783821325, -5866.148277061972, -20156.84785328482, -9822.876432284884, 8851.156693834864, 4678.130707517947, 4778.355929655544, 13308.720387067842, -187500.02235174447, -0.13, 0.964, 0.23, 192.0, 0.0, 0.0, 0.0, 0.0, 0.0, 0.0, 0.0, 0.0, 0.0, 1.7447429008338196E9, 0.0, 2025-04-15 13:48:20.833
16.0, -21044.3685703717, 5969.145115512028, 26731.591133068938, -13396.94272243294, -50132.124141707915, 39069.73172065398, -23591.975699898685, 62822.81879458652, -5856.6264339240115, -20139.5028995875, -9844.691734873264, 8850.687307201304, 4659.154076475391, 4760.2733683912, 13265.134485379993, -187500.02235174447, -0.13, 0.964, 0.23, 192.0, 0.0, 0.0, 0.0, 0.0, 0.0, 0.0, 0.0, 0.0, 0.0, 1.7447429008428338E9, 0.0, 2025-04-15 13:48:20.842
18.0, -21046.469634350495, 6031.327668586692, 26747.304409421016, -13401.100146901626, -49871.033414725476, 39109.27195659542, -23580.844531159943, 62942.378275677955, -5856.6264339240115, -20152.578670093855, -9828.71023758772, 8858.80099043858, 4684.210382009791, 4773.4608976198315, 13304.361796899057, -187500.02235174447, -0.124, 0.9580000000000001, 0.24, 192.0, 126.0, 16.0, 14.5, 120.0, 3.5, 64.0, 0.0, 0.0, 0.0, 1.7447429008499155E9, 0.0, 2025-04-15 13:48:20.849
20.0, -21051.40936987512, 5988.032339576762, 26726.941970222233, -13407.202173137925, -49921.52600545002, 39054.934865824565, -23611.80169723054, 62855.407638002354, -5847.149294274962, -20134.83138499634, -9829.559603877022, 8861.594958495494, 4676.409623194888, 4765.660138804929, 13282.501790821767, -187500.02235174447, -0.124, 0.9580000000000001, 0.24, 192.0, 0.0, 0.0, 0.0, 0.0, 0.0, 0.0, 0.0, 0.0, 0.0, 1.744742900857918E9, 0.0, 2025-04-15 13:48:20.857
22.0, -21065.289803181866, 6033.33932558767, 26736.039130215544, -13405.481088814866, -49650.466400440506, 39102.56643325883, -23583.258519561117, 62968.41805796839, -5862.370832249026, -20153.070408471875, -9823.010542751616, 8855.627042725926, 4685.2385622547345, 4770.309301651633, 13302.216029431347, -187500.02235174447, -0.124, 0.9580000000000001, 0.24, 192.0, 0.0, 0.0, 0.0, 0.0, 0.0, 0.0, 0.0, 0.0, 0.0, 1.7447429008659427E9, 0.0, 2025-04-15 13:48:20.865
24.0, -21064.1722159591, 5993.821441390686, 26719.387080596338, -13399.334359089657, -49681.93765663358, 39063.473232206496, -23591.595720242945, 62898.278283867636, -5852.536064688691, -20140.709893788087, -9827.547946876044, 8861.594958495494, 4679.695329629819, 4768.65527256194, 13299.176192185425, -187500.02235174447, -0.124, 0.9580000000000001, 0.24, 192.0, 0.0, 0.0, 0.0, 0.0, 0.0, 0.0, 0.0, 0.0, 0.0, 1.7447429008750048E9, 0.0, 2025-04-15 13:48:20.875
26.0, -21070.967146273513, 6035.95447968894, 26728.037205700544, -13404.542315547744, -49442.25990083932, 39098.297250067866, -23572.082647333464, 62996.424793770886, -5855.39708797897, -20149.248260170014, -9825.580993363976, 8865.975900408734, 4691.8099751245945, 4774.511429609231, 13308.87684927903, -187500.02235174447, -0.124, 0.9580000000000001, 0.24, 192.0, 0.0, 0.0, 0.0, 0.0, 0.0, 0.0, 0.0, 0.0, 0.0, 1.7447429008820312E9, 0.0, 2025-04-15 13:48:20.882
28.0, -21067.301460182844, 5998.828232148676, 26686.395905780308, -13419.741501777353, -49439.51063627132, 39050.12924076668, -23611.108793152427, 62962.29367998763, -5859.487457214291, -20156.110245717795, -9834.119359745904, 8852.050763613077, 4674.889704571928, 4764.766069026718, 13299.153840440971, -187500.02235174447, -0.116, 0.9400000000000001, 0.23600000000000002, 192.0, 126.0, 48.0, 14.5, 48.0, 3.5, 48.0, 0.0, 0.0, 0.0, 1.7447429008901236E9, 0.0, 2025-04-15 13:48:20.890
30.0, -21099.622082665217, 6025.963249917419, 26694.129609361844, -13422.51311808981, -49225.31386915611, 39079.67824693659, -23586.43246727377, 63070.00673651776, -5879.939303390897, -20158.099550974315, -9842.56831915001, 8855.828208426025, 4670.262893469679, 4761.905045736438, 13284.11111642255, -187500.02235174447, -0.116, 0.9400000000000001, 0.23600000000000002, 192.0, 0.0, 0.0, 0.0, 0.0, 0.0, 0.0, 0.0, 0.0, 0.0, 1.7447429008981557E9, 0.0, 2025-04-15 13:48:20.898
32.0, -21086.45690518104, 5992.167412300994, 26673.007210851578, -13424.390664624056, -49232.4217238929, 39029.565635867795, -23621.658816535335, 63046.895032750974, -5883.292065059193, -20157.317239918382, -9850.167912264815, 8850.553196734572, 4655.2425211957125, 4761.70388003634, 13288.693224035887, -187500.02235174447, -0.116, 0.9400000000000001, 0.23600000000000002, 192.0, 0.0, 0.0, 0.0, 0.0, 0.0, 0.0, 0.0, 0.0, 0.0, 1.7447429009071772E9, 0.0, 2025-04-15 13:48:20.907
34.0, -21088.893245326668, 6012.507499755323, 26690.776847693545, -13424.61418206861, -49088.85646925646, 39052.65498789013, -23587.795923685542, 63130.69172271392, -5869.121059074529, -20151.41637938218, -9854.414743711322, 8855.13530434791, 4667.267759712668, 4755.0877636775695, 13267.079087147606, -187500.02235174447, -0.116, 0.9400000000000001, 0.23600000000000002, 192.0, 0.0, 0.0, 0.0, 0.0, 0.0, 0.0, 0.0, 0.0, 0.0, 1.744742900913216E9, 0.0, 2025-04-15 13:48:20.913
36.0, -21090.301405227354, 5977.392909216036, 26657.204527521673, -13438.449911886444, -49063.06255615503, 39018.501522362414, -23624.475136336703, 63145.8015019657, -5876.675948700422, -20160.290021930938, -9848.469179686212, 8847.401600766374, 4667.290111457123, 4755.8477229890495, 13294.907008994462, -187500.02235174447, -0.116, 0.9400000000000001, 0.23600000000000002, 192.0, 0.0, 0.0, 0.0, 0.0, 0.0, 0.0, 0.0, 0.0, 0.0, 1.7447429009222329E9, 0.0, 2025-04-15 13:48:20.922
38.0, -21094.280015740398, 5984.545467441734, 26665.27350727004, -13446.205967212436, -48953.51665657957, 39027.308109677804, -23603.062165148516, 63208.69931086294, -5891.361044807559, -20172.89640580373, -9872.76552590913, 8832.247118025674, 4648.536997859121, 4728.310373820112, 13250.605851484044, -187500.02235174447, -0.108, 0.934, 0.24, 192.0, 126.0, 80.0, 14.5, 24.0, 3.5, 64.0, 0.0, 0.0, 0.0, 1.7447429009302945E9, 0.0, 2025-04-15 13:48:20.930
40.0, -21084.579358646795, 5975.247141748327, 26658.322114744442, -13438.204042697436, -48929.33206907893, 39003.74937102191, -23625.168040414817, 63211.22505798639, -5892.2551145857715, -20176.427981427667, -9862.014336826127, 8832.627097681416, 4652.090925227514, 4740.380315825977, 13284.871075734029, -187500.02235174447, -0.108, 0.934, 0.24, 192.0, 0.0, 0.0, 0.0, 0.0, 0.0, 0.0, 0.0, 0.0, 0.0, 1.7447429009373283E9, 0.0, 2025-04-15 13:48:20.937
42.0, -21090.100239527255, 5977.951702827419, 26678.349277776397, -13438.360504908624, -48899.17956580872, 39014.54526359383, -23589.85228417543, 63221.03747380227, -5882.241533069794, -20162.078161487363, -9873.927816620806, 8834.057609326555, 4648.469942625755, 4728.3774290534775, 13247.074275860105, -187500.02235174447, -0.108, 0.934, 0.24, 192.0, 0.0, 0.0, 0.0, 0.0, 0.0, 0.0, 0.0, 0.0, 0.0, 1.7447429009463563E9, 0.0, 2025-04-15 13:48:20.946
44.0, -21095.576416918804, 5972.050842291217, 26650.56605941845, -13458.633537129586, -48814.28764036747, 39001.98358320994, -23624.072804936506, 63261.98586964439, -5894.870268687042, -20182.865283830797, -9859.868569358418, 8823.686399899292, 4650.235730437724, 4739.866225703505, 13300.137317197004, -187500.02235174447, -0.108, 0.934, 0.24, 192.0, 0.0, 0.0, 0.0, 0.0, 0.0, 0.0, 0.0, 0.0, 0.0, 1.744742900954397E9, 0.0, 2025-04-15 13:48:20.954
46.0, -21098.23627450899, 5950.973147269863, 26655.595201920893, -13463.215644742924, -48813.371218844804, 38997.49088257443, -23614.975644943195, 63246.205538058945, -5905.666161258956, -20188.564978666902, -9896.346616309478, 8797.579562375495, 4621.714904512752, 4703.231716541257, 13234.713761176321, -187500.02235174447, -0.108, 0.934, 0.24, 192.0, 0.0, 0.0, 0.0, 0.0, 0.0, 0.0, 0.0, 0.0, 0.0, 1.7447429009614584E9, 0.0, 2025-04-15 13:48:20.961
48.0, -21101.633739666195, 5962.193722986427, 26650.923687329734, -13463.148589509557, -48706.08284545933, 39002.11769367668, -23637.97558998771, 63297.63690205061, -5916.842033486609, -20197.058641559917, -9881.90738939135, 8808.755434603147, 4638.29989889859, 4724.354115051522, 13283.954654211362, -187500.02235174447, -0.112, 0.9400000000000001, 0.234, 192.0, 126.0, 64.0, 14.5, 48.0, 3.5, 40.0, 0.0, 0.0, 0.0, 1.7447429009694703E9, 0.0, 2025-04-15 13:48:20.969
50.0, -21075.16927423111, 5949.810856558187, 26683.75839993458, -13437.868766530606, -48780.581209728865, 38989.04192317032, -23618.730738011687, 63239.23179378889, -5891.4951552742905, -20170.37065868028, -9894.87140117543, 8814.07514978351, 4635.01419246366, 4708.17145206588, 13228.119996562005, -187500.02235174447, -0.112, 0.9400000000000001, 0.234, 192.0, 0.0, 0.0, 0.0, 0.0, 0.0, 0.0, 0.0, 0.0, 0.0, 1.74474290097852E9, 0.0, 2025-04-15 13:48:20.978
52.0, -21067.659088094126, 5985.238371519848, 26681.70203944469, -13438.718132819908, -48665.26856008394, 39006.34217337873, -23636.142746942372, 63314.020730736345, -5890.534030262713, -20171.37648718077, -9860.628528669899, 8833.208243037254, 4659.82462880905, 4739.307432092122, 13288.11207868005, -187500.02235174447, -0.112, 0.9400000000000001, 0.234, 192.0, 0.0, 0.0, 0.0, 0.0, 0.0, 0.0, 0.0, 0.0, 0.0, 1.744742900987562E9, 0.0, 2025-04-15 13:48:20.987
54.0, -21069.335468928275, 5952.2471967038155, 26680.13741733282, -13438.382856653077, -48752.14979078172, 38983.543394034314, -23632.83468876299, 63279.26376810834, -5897.574829766135, -20163.106341732306, -9892.546819752077, 8821.115949286932, 4629.605070305475, 4716.173376580879, 13221.772101136698, -187500.02235174447, -0.112, 0.9400000000000001, 0.234, 192.0, 0.0, 0.0, 0.0, 0.0, 0.0, 0.0, 0.0, 0.0, 0.0, 1.744742900994619E9, 0.0, 2025-04-15 13:48:20.994
56.0, -21069.60368986174, 5983.629045919067, 26690.262757571076, -13431.543222849754, -48608.04809427835, 39014.0088217269, -23629.48192709469, 63395.69400497604, -5905.353236836581, -20180.294833218435, -9871.200903797258, 8820.9818388202, 4643.753724545685, 4736.5358157796645, 13280.713651265341, -187500.02235174447, -0.112, 0.9400000000000001, 0.234, 192.0, 0.0, 0.0, 0.0, 0.0, 0.0, 0.0, 0.0, 0.0, 0.0, 1.7447429010036352E9, 0.0, 2025-04-15 13:48:21.003
58.0, -21055.857367021727, 5943.7311820663435, 26705.014908911577, -13412.566591807199, -48790.12540461128, 38981.174109122054, -23612.941636197764, 63306.2423236659, -5880.49809700228, -20153.31627766088, -9881.393299268879, 8826.793292378581, 4634.075419196537, 4722.5659754950975, 13236.837176899575, -187500.02235174447, -0.114, 0.9460000000000001, 0.23600000000000002, 192.0, 126.0, 48.0, 14.5, 96.0, 3.5, 56.0, 0.0, 0.0, 0.0, 1.7447429010106814E9, 0.0, 2025-04-15 13:48:21.010
60.0, -21055.656201321628, 5985.260723264304, 26708.747650235615, -13415.94170521995, -48661.312301315345, 39014.947594994024, -23616.786136244078, 63411.764909239406, -5891.048120385185, -20171.711763347597, -9860.114438547425, 8828.022638323622, 4651.733297316229, 4741.967289682304, 13286.949787968373, -187500.02235174447, -0.114, 0.9460000000000001, 0.23600000000000002, 192.0, 0.0, 0.0, 0.0, 0.0, 0.0, 0.0, 0.0, 0.0, 0.0, 1.7447429010177264E9, 0.0, 2025-04-15 13:48:21.017
62.0, -21037.64069529065, 5945.407562900492, 26713.24035087113, -13401.79305097974, -48876.58195216441, 38982.53756553383, -23599.642348246856, 63288.785611246305, -5871.669157942433, -20140.03934145443, -9870.28448227459, 8840.897243129879, 4639.238672165713, 4735.038248901159, 13234.512595476222, -187500.02235174447, -0.114, 0.9460000000000001, 0.23600000000000002, 192.0, 0.0, 0.0, 0.0, 0.0, 0.0, 0.0, 0.0, 0.0, 0.0, 1.7447429010257664E9, 0.0, 2025-04-15 13:48:21.025
64.0, -21059.9700880015, 5990.871011122586, 26715.43082182775, -13420.032074455272, -48747.38886921274, 39026.34698466623, -23601.94457792575, 63374.97393786597, -5875.871285900032, -20147.12484444676, -9849.586766908977, 8845.501702487672, 4660.808105565084, 4757.7252695232955, 13279.998395442772, -187500.02235174447, -0.114, 0.9460000000000001, 0.23600000000000002, 192.0, 0.0, 0.0, 0.0, 0.0, 0.0, 0.0, 0.0, 0.0, 0.0, 1.7447429010338292E9, 0.0, 2025-04-15 13:48:21.033
66.0, -21054.382151887676, 5942.725353565855, 26708.32296709096, -13418.601562810132, -48935.88113020434, 38986.426769069054, -23611.86875246391, 63256.7332096974, -5887.628303483522, -20151.774007293465, -9882.265017302636, 8823.641696410383, 4635.81885526405, 4730.210272098812, 13241.598098468554, -187500.02235174447, -0.114, 0.9460000000000001, 0.23600000000000002, 192.0, 0.0, 0.0, 0.0, 0.0, 0.0, 0.0, 0.0, 0.0, 0.0, 1.7447429010418632E9, 0.0, 2025-04-15 13:48:21.041
68.0, -21058.941907756558, 5994.46964197989, 26730.674711546268, -13408.587981294153, -48821.50725382653, 39044.25073197493, -23579.77164742609, 63318.714597071965, -5880.207524324361, -20151.170510193173, -9855.979365823194, 8843.780618164614, 4664.49614340021, 4754.640728788463, 13278.72434600882, -187500.02235174447, -0.11699999999999999, 0.9480000000000001, 0.23700000000000002, 192.0, 126.0, 32.0, 14.5, 88.0, 3.5, 56.0, 0.0, 0.0, 0.0, 1.7447429010498707E9, 0.0, 2025-04-15 13:48:21.049
70.0, -21067.83790204977, 5942.859464032586, 26693.771981450558, -13421.663751800508, -48996.5661164005, 39000.620126798174, -23617.121412410906, 63199.445688658445, -5877.59237022309, -20145.381408379246, -9869.85979912994, 8837.455074483762, 4646.212416435768, 4745.744734495251, 13254.048020130162, -187500.02235174447, -0.11699999999999999, 0.9480000000000001, 0.23700000000000002, 192.0, 0.0, 0.0, 0.0, 0.0, 0.0, 0.0, 0.0, 0.0, 0.0, 1.7447429010579667E9, 0.0, 2025-04-15 13:48:21.057
72.0, -21084.959338302535, 5989.440499477447, 26698.33173731944, -13434.18072869548, -48855.43720190969, 39036.472324904484, -23605.520857038602, 63273.51936978333, -5894.490289031302, -20169.297774946426, -9873.078450331504, 8827.754417390159, 4645.765381546662, 4738.927452436382, 13261.647613244964, -187500.02235174447, -0.11699999999999999, 0.9480000000000001, 0.23700000000000002, 192.0, 0.0, 0.0, 0.0, 0.0, 0.0, 0.0, 0.0, 0.0, 0.0, 1.7447429010659716E9, 0.0, 2025-04-15 13:48:21.065
74.0, -21073.582300374783, 5952.113086237084, 26691.559158749482, -13424.144795435048, -49012.01117181912, 38993.53462380584, -23626.39738635986, 63148.7072287449, -5880.855724913565, -20157.384295151747, -9869.077488074005, 8834.594051193482, 4642.792599534107, 4731.12669362148, 13250.114113106027, -187500.02235174447, -0.11699999999999999, 0.9480000000000001, 0.23700000000000002, 192.0, 0.0, 0.0, 0.0, 0.0, 0.0, 0.0, 0.0, 0.0, 0.0, 1.7447429010730171E9, 0.0, 2025-04-15 13:48:21.073
76.0, -21072.97880327449, 5997.9118106260075, 26722.404566097804, -13407.805670238218, -48915.20576658318, 39036.51702839339, -23592.310976065517, 63178.30093840372, -5871.847971898076, -20156.959612007096, -9856.694621645764, 8842.46186524175, 4662.015099765671, 4736.133484379468, 13262.608738256544, -187500.02235174447, -0.11699999999999999, 0.9480000000000001, 0.23700000000000002, 192.0, 0.0, 0.0, 0.0, 0.0, 0.0, 0.0, 0.0, 0.0, 0.0, 1.7447429010820484E9, 0.0, 2025-04-15 13:48:21.082
78.0, -21074.901053297646, 5956.583435128145, 26695.493065773615, -13411.203135395424, -49022.33767775747, 39002.81059775479, -23620.38476710138, 63088.53633267121, -5869.523390474724, -20155.149120706217, -9848.469179686212, 8845.121722831933, 4658.282358441635, 4742.011993171214, 13277.24913087477, -187500.02235174447, -0.1175, 0.9510000000000001, 0.23650000000000002, 192.0, 126.0, 40.0, 14.5, 104.0, 3.5, 48.0, 0.0, 0.0, 0.0, 1.744742901090146E9, 0.0, 2025-04-15 13:48:21.090
80.0, -21072.665878852116, 5992.770909401287, 26720.616426541383, -13393.634664253554, -48957.69643279272, 39034.8629993037, -23582.923243394285, 63098.393451976, -5864.248378783272, -20145.023780467964, -9852.51484543262, 8850.128513589922, 4660.316367187067, 4743.353097838533, 13260.19474985537, -187500.02235174447, -0.1175, 0.9510000000000001, 0.23650000000000002, 192.0, 0.0, 0.0, 0.0, 0.0, 0.0, 0.0, 0.0, 0.0, 0.0, 1.7447429010971317E9, 0.0, 2025-04-15 13:48:21.097
82.0, -21074.78929457537, 5957.499856650813, 26692.922615161257, -13403.044748669237, -49049.49504727066, 38991.455911571495, -23621.144726412862, 63024.78915748467, -5864.024861338718, -20138.430015853646, -9843.730609861686, 8851.782542679613, 4661.322195687556, 4753.65725203243, 13286.793325757186, -187500.02235174447, -0.1175, 0.9510000000000001, 0.23650000000000002, 192.0, 0.0, 0.0, 0.0, 0.0, 0.0, 0.0, 0.0, 0.0, 0.0, 1.7447429011051915E9, 0.0, 2025-04-15 13:48:21.105
84.0, -21075.772771331405, 5985.484240708857, 26725.42205159927, -13396.048652654727, -49000.12004376889, 39015.506388605405, -23585.404287028825, 63050.180739185904, -5864.293082272182, -20137.021855952964, -9851.218444254213, 8847.558062977561, 4654.01317525067, 4741.654365259929, 13259.367735310523, -187500.02235174447, -0.1175, 0.9510000000000001, 0.23650000000000002, 192.0, 0.0, 0.0, 0.0, 0.0, 0.0, 0.0, 0.0, 0.0, 0.0, 1.744742901114222E9, 0.0, 2025-04-15 13:48:21.114
86.0, -21067.681439838583, 5961.858446819598, 26704.65728100029, -13398.037957911249, -49058.882779941894, 39000.128388420155, -23612.226380375192, 63019.87177370451, -5862.773163649222, -20143.32504788936, -9837.539176647566, 8855.492932259194, 4655.823666551551, 4753.277272376689, 13302.908933509461, -187500.02235174447, -0.1175, 0.9510000000000001, 0.23650000000000002, 192.0, 0.0, 0.0, 0.0, 0.0, 0.0, 0.0, 0.0, 0.0, 0.0, 1.7447429011212683E9, 0.0, 2025-04-15 13:48:21.121
88.0, -21070.855387551237, 5970.508571923801, 26725.511458577093, -13390.393661307533, -49101.41814964034, 39015.17111243858, -23562.784321640054, 62999.10700310553, -5851.306718743649, -20124.661341269177, -9851.084333787481, 8859.56094975006, 4658.68468984183, 4744.493036805754, 13263.636918501488, -187500.02235174447, -0.11474999999999999, 0.9515, 0.23725000000000002, 192.0, 126.0, 64.0, 14.5, 96.0, 3.5, 56.0, 0.0, 0.0, 0.0, 1.7447429011292765E9, 0.0, 2025-04-15 13:48:21.129
90.0, -21082.880626068192, 5949.162655968983, 26701.483333287637, -13405.302274859223, -49146.92630135135, 39003.81642625528, -23588.42177253029, 62995.307206548125, -5863.309605516149, -20142.140405433227, -9841.60719413843, 8852.184874079809, 4667.513628901676, 4755.266577633211, 13309.033311490217, -187500.02235174447, -0.11474999999999999, 0.9515, 0.23725000000000002, 192.0, 0.0, 0.0, 0.0, 0.0, 0.0, 0.0, 0.0, 0.0, 0.0, 1.7447429011373491E9, 0.0, 2025-04-15 13:48:21.137
92.0, -21089.429687193595, 5948.536807124235, 26718.560066051494, -13412.790109251751, -49207.90186022543, 39009.1584931801, -23561.689086161743, 62985.65125294343, -5856.961710090842, -20142.8556612558, -9863.467200215722, 8837.70094367277, 4656.337756674023, 4731.305507577123, 13262.854607445552, -187500.02235174447, -0.11474999999999999, 0.9515, 0.23725000000000002, 192.0, 0.0, 0.0, 0.0, 0.0, 0.0, 0.0, 0.0, 0.0, 0.0, 1.7447429011464143E9, 0.0, 2025-04-15 13:48:21.146
94.0, -21102.058422810846, 5948.514455379779, 26698.108219874888, -13429.308048404224, -49192.59091527354, 38998.54141456383, -23603.643310504354, 63019.26827660421, -5874.261960299249, -20168.023725512474, -9854.48179894469, 8826.36860923393, 4662.5738933770535, 4739.039211158659, 13308.653331834475, -187500.02235174447, -0.11474999999999999, 0.9515, 0.23725000000000002, 192.0, 0.0, 0.0, 0.0, 0.0, 0.0, 0.0, 0.0, 0.0, 0.0, 1.744742901153418E9, 0.0, 2025-04-15 13:48:21.153
96.0, -21089.295576726865, 5938.970260497363, 26712.30157760401, -13416.142870920048, -49294.067835100635, 38996.350943607205, -23576.552996224524, 62970.697935902834, -5876.363024278048, -20154.14329220573, -9875.96182536624, 8822.702923143259, 4643.3290414010335, 4718.676771959874, 13242.916851391417, -187500.02235174447, -0.11474999999999999, 0.9515, 0.23725000000000002, 192.0, 0.0, 0.0, 0.0, 0.0, 0.0, 0.0, 0.0, 0.0, 0.0, 1.744742901161466E9, 0.0, 2025-04-15 13:48:21.161
98.0, -21088.625024393205, 5960.5173421522795, 26701.9527199212, -13418.556859321221, -49255.332261959586, 39005.91749023408, -23590.29931906454, 63000.64927347294, -5873.300835287671, -20156.80314979591, -9844.4235139398, 8843.89237688689, 4665.524323645154, 4748.60575778553, 13301.25490441977, -187500.02235174447, -0.117375, 0.9477500000000001, 0.23762500000000003, 192.0, 126.0, 32.0, 14.5, 64.0, 3.5, 56.0, 0.0, 0.0, 0.0, 1.7447429011695187E9, 0.0, 2025-04-15 13:48:21.169
100.0, -21099.577379176306, 5935.528091851246, 26699.672841986758, -13424.949458235438, -49370.10846973759, 38993.24405112792, -23583.683202705768, 62939.584307621044, -5862.706108415855, -20151.88576601574, -9870.485647974689, 8826.994458078678, 4645.988898991215, 4722.297754561634, 13247.878938660497, -187500.02235174447, -0.117375, 0.9477500000000001, 0.23762500000000003, 192.0, 0.0, 0.0, 0.0, 0.0, 0.0, 0.0, 0.0, 0.0, 0.0, 1.7447429011775527E9, 0.0, 2025-04-15 13:48:21.177
102.0, -21105.79116413488, 5956.538731639234, 26687.714658703168, -13436.058275229727, -49274.66652091343, 39003.972888466466, -23614.573313543002, 63007.08657587607, -5893.149184363983, -20188.922606578184, -9867.244645028668, 8811.21412649323, 4646.391230391411, 4726.388123796955, 13299.10913695206, -187500.02235174447, -0.117375, 0.9477500000000001, 0.23762500000000003, 192.0, 0.0, 0.0, 0.0, 0.0, 0.0, 0.0, 0.0, 0.0, 0.0, 1.7447429011855867E9, 0.0, 2025-04-15 13:48:21.185
104.0, -21092.715393628525, 5918.987800954318, 26707.607711268392, -13419.294466888246, -49461.907084215534, 38976.077911386245, -23599.24001684666, 62890.49987679719, -5871.713861431344, -20156.37846665126, -9880.029842857104, 8823.529937688105, 4635.952965730782, 4711.1218823339805, 13234.423188498402, -187500.02235174447, -0.117375, 0.9477500000000001, 0.23762500000000003, 192.0, 0.0, 0.0, 0.0, 0.0, 0.0, 0.0, 0.0, 0.0, 0.0, 1.744742901193637E9, 0.0, 2025-04-15 13:48:21.193
106.0, -21095.017623307423, 5963.89245556503, 26709.976996180656, -13423.764815779306, -49355.06574571917, 39015.14876069412, -23595.32846156698, 62968.19454052384, -5879.916951646442, -20172.002336025518, -9852.917176832816, 8822.278239998608, 4653.700250828297, 4734.837083201061, 13295.063471205649, -187500.02235174447, -0.117375, 0.9477500000000001, 0.23762500000000003, 192.0, 0.0, 0.0, 0.0, 0.0, 0.0, 0.0, 0.0, 0.0, 0.0, 1.7447429012016764E9, 0.0, 2025-04-15 13:48:21.201
108.0, -21101.70079489956, 5921.491196333313, 26697.14709486331, -13430.447987371444, -49524.38020996812, 38981.107053888685, -23588.19825508574, 62872.8419986775, -5874.060794599151, -20165.721495833575, -9879.67221494582, 8807.74960610266, 4634.656564552375, 4714.273478302179, 13248.057752616138, -187500.02235174447, -0.1166875, 0.9468750000000001, 0.23781250000000004, 192.0, 126.0, 48.0, 14.5, 72.0, 3.5, 56.0, 0.0, 0.0, 0.0, 1.7447429012087235E9, 0.0, 2025-04-15 13:48:21.208
110.0, -21094.9282163296, 5967.692252122432, 26704.813743211478, -13431.006780982827, -49393.98013281586, 39008.644403057624, -23598.81533370201, 62958.58329040805, -5881.191001080394, -20181.747696608032, -9863.154275793348, 8809.470690425718, 4649.475771126244, 4729.3162023206005, 13292.403613615468, -187500.02235174447, -0.1166875, 0.9468750000000001, 0.23781250000000004, 192.0, 0.0, 0.0, 0.0, 0.0, 0.0, 0.0, 0.0, 0.0, 0.0, 1.7447429012177875E9, 0.0, 2025-04-15 13:48:21.217
112.0, -21095.442306452074, 5926.6544493024885, 26697.90705417479, -13428.592792581654, -49576.45977454898, 38965.68435021453, -23613.075746664497, 62846.22107103123, -5874.753698677266, -20161.966402765083, -9878.264055045134, 8813.78457710559, 4634.142474429903, 4714.6981614468295, 13244.727342692298, -187500.02235174447, -0.1166875, 0.9468750000000001, 0.23781250000000004, 192.0, 0.0, 0.0, 0.0, 0.0, 0.0, 0.0, 0.0, 0.0, 0.0, 1.7447429012257853E9, 0.0, 2025-04-15 13:48:21.225
114.0, -21119.51513523044, 5971.603807402112, 26691.648565727304, -13446.071856745704, -49413.314391769694, 39007.7056297905, -23605.319691338504, 62959.298546230624, -5882.152126091973, -20180.250129729528, -9867.311700262035, 8812.845803838469, 4648.559349603575, 4730.36673431, 13280.467782076334, -187500.02235174447, -0.1166875, 0.9468750000000001, 0.23781250000000004, 192.0, 0.0, 0.0, 0.0, 0.0, 0.0, 0.0, 0.0, 0.0, 0.0, 1.7447429012338593E9, 0.0, 2025-04-15 13:48:21.233
116.0, -21110.17210604812, 5915.188004396917, 26673.968335863156, -13441.579156110187, -49605.360580129694, 38955.91663788756, -23614.573313543002, 62839.895527350374, -5886.4436610273915, -20179.534873906956, -9893.10561336346, 8800.351178687952, 4623.1901196468025, 4702.538812463143, 13237.418322255413, -187500.02235174447, -0.1166875, 0.9468750000000001, 0.23781250000000004, 192.0, 0.0, 0.0, 0.0, 0.0, 0.0, 0.0, 0.0, 0.0, 0.0, 1.744742901240912E9, 0.0, 2025-04-15 13:48:21.240
118.0, -21132.14387084769, 5956.784600828243, 26670.481463728127, -13462.299223220256, -49427.97713613238, 38999.703705275504, -23600.938749425262, 62959.87969158646, -5894.065605886652, -20198.51150494951, -9882.913217891839, 8807.637847380382, 4643.6196140789525, 4705.511594475698, 13266.38618306949, -187500.02235174447, -0.1166875, 0.9468750000000001, 0.23781250000000004, 192.0, 0.0, 0.0, 0.0, 0.0, 0.0, 0.0, 0.0, 0.0, 0.0, 1.7447429012499254E9, 0.0, 2025-04-15 13:48:21.249
120.0, -21111.31204501534, 5913.399864840492, 26659.88673685631, -13454.587871383175, -49595.9057922251, 38946.68536742751, -23620.898857223852, 62852.34544901198, -5908.16955663795, -20203.585350940866, -9905.734348980708, 8777.68650981027, 4609.935535184805, 4683.003387809204, 13238.401799011446, -187500.02235174447, -0.112, 0.9460000000000001, 0.234, 192.0, 126.0, 64.0, 14.5, 72.0, 3.5, 40.0, 0.0, 0.0, 0.0, 1.744742901257965E9, 0.0, 2025-04-15 13:48:21.257
122.0, -21100.09146929878, 5964.764173598787, 26690.91095816028, -13441.266231687812, -49508.30930570475, 38992.26057437189, -23583.43733351676, 62900.379347846436, -5886.35425404957, -20183.58053965337, -9884.589598725986, 8799.479460654195, 4639.663355310364, 4707.567954965586, 13250.359982295035, -187500.02235174447, -0.112, 0.9460000000000001, 0.234, 192.0, 0.0, 0.0, 0.0, 0.0, 0.0, 0.0, 0.0, 0.0, 0.0, 1.744742901264985E9, 0.0, 2025-04-15 13:48:21.264
124.0, -21103.086603055788, 5923.972239967852, 26669.877966627835, -13438.338153164168, -49645.25844398242, 38959.67173095605, -23607.376051828393, 62823.332884708994, -5880.721614446833, -20178.774914595477, -9881.661520202342, 8805.000341534656, 4636.422352364344, 4710.540736978142, 13260.91000567794, -187500.02235174447, -0.112, 0.9460000000000001, 0.234, 192.0, 0.0, 0.0, 0.0, 0.0, 0.0, 0.0, 0.0, 0.0, 0.0, 1.7447429012730455E9, 0.0, 2025-04-15 13:48:21.273
126.0, -21104.628873423204, 5963.020737531274, 26684.786580179523, -13438.89694677555, -49535.48902696241, 38994.92043196207, -23590.589891742457, 62893.6961762543, -5886.130736605017, -20184.89929257623, -9884.85781965945, 8806.162632246333, 4636.601166319986, 4706.807995654106, 13256.5290637647, -187500.02235174447, -0.112, 0.9460000000000001, 0.234, 192.0, 0.0, 0.0, 0.0, 0.0, 0.0, 0.0, 0.0, 0.0, 0.0, 1.744742901282142E9, 0.0, 2025-04-15 13:48:21.282
128.0, -21090.0778877828, 5934.052876717195, 26666.502853215083, -13433.174900194992, -49662.31282500182, 38960.61050422317, -23616.6743775218, 62807.9772362682, -5880.185172579905, -20178.685507617654, -9876.565322466531, 8804.9779897902, 4636.53411108662, 4713.021780612681, 13264.441581301879, -187500.02235174447, -0.112, 0.9460000000000001, 0.234, 192.0, 0.0, 0.0, 0.0, 0.0, 0.0, 0.0, 0.0, 0.0, 0.0, 1.7447429012891445E9, 0.0, 2025-04-15 13:48:21.289
130.0, -21100.292634998874, 5972.587284158145, 26692.408525038783, -13435.477129873889, -49589.96022819999, 39002.02828669886, -23580.173978826282, 62865.46592300724, -5880.967483635841, -20168.51546389049, -9875.894770132873, 8818.523146930116, 4645.273643168645, 4718.967344637793, 13245.375543281501, -187500.02235174447, -0.116, 0.9520000000000001, 0.23800000000000002, 192.0, 126.0, 48.0, 14.5, 96.0, 3.5, 56.0, 0.0, 0.0, 0.0, 1.7447429012971685E9, 0.0, 2025-04-15 13:48:21.297
132.0, -21102.70662340005, 5943.798237299709, 26670.95085036169, -13441.221528198903, -49629.58987111925, 38981.397626566606, -23612.449897819748, 62862.96252762825, -5892.858611686064, -20181.054792529918, -9879.448697501266, 8804.21803047872, 4640.378611132934, 4719.213213826802, 13273.426982572912, -187500.02235174447, -0.116, 0.9520000000000001, 0.23800000000000002, 192.0, 0.0, 0.0, 0.0, 0.0, 0.0, 0.0, 0.0, 0.0, 0.0, 1.744742901305212E9, 0.0, 2025-04-15 13:48:21.305
134.0, -21083.439419679573, 5984.031377319262, 26711.80983922599, -13414.555897063721, -49594.47528057996, 39010.678411803055, -23578.072914847486, 62888.622330262944, -5875.379547522015, -20164.581556866357, -9882.71205219174, 8813.896335827869, 4641.898529755894, 4713.088835846047, 13244.168549080916, -187500.02235174447, -0.116, 0.9520000000000001, 0.23800000000000002, 192.0, 0.0, 0.0, 0.0, 0.0, 0.0, 0.0, 0.0, 0.0, 0.0, 1.744742901313243E9, 0.0, 2025-04-15 13:48:21.313
136.0, -21079.661974866627, 5966.574664899667, 26687.289975558517, -13421.03790295576, -49626.23710945095, 38987.81257722528, -23613.567485042513, 62876.77590570163, -5873.8819806435085, -20169.23071971306, -9854.839426855973, 8822.904088843357, 4658.125896230447, 4735.217062856801, 13288.067375191138, -187500.02235174447, -0.116, 0.9520000000000001, 0.23800000000000002, 192.0, 0.0, 0.0, 0.0, 0.0, 0.0, 0.0, 0.0, 0.0, 0.0, 1.7447429013222873E9, 0.0, 2025-04-15 13:48:21.322
138.0, -21083.238253979478, 5979.806897617209, 26701.304519331996, -13421.194365166946, -49621.92322277108, 39003.50350183291, -23589.584063241968, 62891.3939465754, -5862.281425271204, -20163.352210921315, -9865.680022916797, 8816.690303884781, 4653.856713039483, 4722.4542167728205, 13241.441636257368, -187500.02235174447, -0.116, 0.9520000000000001, 0.23800000000000002, 192.0, 0.0, 0.0, 0.0, 0.0, 0.0, 0.0, 0.0, 0.0, 0.0, 1.7447429013293881E9, 0.0, 2025-04-15 13:48:21.329
140.0, -21088.490913926475, 5967.200513744416, 26678.081056842933, -13429.263344915313, -49605.07000745177, 38991.031228426844, -23628.118470682915, 62908.001292705696, -5881.97331213633, -20170.03538251345, -9854.66061290033, 8824.491062699684, 4653.499085128198, 4736.289946590656, 13287.4862298353, -187500.02235174447, -0.12, 0.9480000000000001, 0.232, 192.0, 126.0, 32.0, 14.5, 80.0, 3.5, 32.0, 0.0, 0.0, 0.0, 1.7447429013384216E9, 0.0, 2025-04-15 13:48:21.338
142.0, -21080.69015511157, 5964.138324754039, 26711.340452592427, -13413.348902863134, -49655.09321154276, 38991.880594716145, -23590.276967320082, 62878.11701036895, -5870.573922464124, -20158.501882374512, -9872.13967706438, 8827.419141223329, 4637.96462273176, 4716.709818447807, 13230.37752275199, -187500.02235174447, -0.12, 0.9480000000000001, 0.232, 192.0, 0.0, 0.0, 0.0, 0.0, 0.0, 0.0, 0.0, 0.0, 0.0, 1.7447429013444278E9, 0.0, 2025-04-15 13:48:21.344
144.0, -21078.25381496594, 5984.478412208368, 26705.551350778504, -13419.070949443692, -49598.54329807083, 38996.060370929285, -23615.91441821032, 62915.42207186486, -5869.545742219179, -20170.482417402556, -9840.579013893488, 8836.382190749908, 4656.15894271838, 4739.262728603212, 13293.29768339368, -187500.02235174447, -0.12, 0.9480000000000001, 0.232, 192.0, 0.0, 0.0, 0.0, 0.0, 0.0, 0.0, 0.0, 0.0, 0.0, 1.7447429013534772E9, 0.0, 2025-04-15 13:48:21.353
146.0, -21077.583262632284, 5968.519266667279, 26717.844810228922, -13415.271152886291, -49687.39148228068, 38985.13036789064, -23597.608339501425, 62861.12968458291, -5866.237684039794, -20155.529100361957, -9860.784990881086, 8831.263641269641, 4641.786771033618, 4716.240431814245, 13235.496072232256, -187500.02235174447, -0.12, 0.9480000000000001, 0.232, 192.0, 0.0, 0.0, 0.0, 0.0, 0.0, 0.0, 0.0, 0.0, 0.0, 1.7447429013615131E9, 0.0, 2025-04-15 13:48:21.361
148.0, -21087.529788914897, 5975.895342337531, 26695.09073437342, -13436.170033952003, -49591.56955380077, 38991.99235343842, -23622.888162480376, 62926.21796443677, -5881.794498180688, -20174.863359315797, -9841.85306332744, 8831.710676158747, 4656.829495052039, 4733.384219811466, 13292.224799659825, -187500.02235174447, -0.12, 0.9480000000000001, 0.232, 192.0, 0.0, 0.0, 0.0, 0.0, 0.0, 0.0, 0.0, 0.0, 0.0, 1.7447429013696327E9, 0.0, 2025-04-15 13:48:21.369
150.0, -21084.489951668973, 5946.189873956428, 26694.62134773986, -13434.091321717659, -49696.1310143627, 38971.69696947301, -23603.643310504354, 62865.44357126279, -5890.086995373606, -20175.75742909401, -9879.113421334438, 8809.381283447896, 4629.538015072109, 4702.427053740866, 13225.169566293904, -187500.02235174447, -0.124, 0.9480000000000001, 0.224, 192.0, 126.0, 16.0, 14.5, 80.0, 3.5, 0.0, 0.0, 0.0, 0.0, 1.7447429013765802E9, 0.0, 2025-04-15 13:48:21.376
152.0, -21069.000192761447, 5987.317083754192, 26693.347298305907, -13428.391626881556, -49586.361597342686, 38996.99914419641, -23609.052432662542, 62927.89434527092, -5883.940265648397, -20163.486321388045, -9853.990060566672, 8835.354010504963, 4657.164771218869, 4733.875958189483, 13275.572750040621, -187500.02235174447, -0.124, 0.9480000000000001, 0.224, 192.0, 0.0, 0.0, 0.0, 0.0, 0.0, 0.0, 0.0, 0.0, 0.0, 1.7447429013856552E9, 0.0, 2025-04-15 13:48:21.385
154.0, -21057.712561811517, 5950.928443780952, 26693.81668493947, -13429.79978678224, -49720.62852628571, 38969.081815371734, -23618.350758355948, 62844.298821008066, -5878.419384767936, -20158.88186203025, -9882.62264521392, 8817.718484129726, 4633.896605240894, 4707.545603221131, 13214.32897023308, -187500.02235174447, -0.124, 0.9480000000000001, 0.224, 192.0, 0.0, 0.0, 0.0, 0.0, 0.0, 0.0, 0.0, 0.0, 0.0, 1.7447429013936715E9, 0.0, 2025-04-15 13:48:21.393
156.0, -21058.78544554537, 5992.972075101385, 26700.81278095398, -13433.711342061919, -49565.865047677165, 39014.813484527294, -23607.934845439773, 62947.51917690268, -5877.92764638992, -20165.52033013348, -9855.822903612006, 8828.089693556987, 4659.377593919944, 4734.144179122946, 13275.14806689597, -187500.02235174447, -0.124, 0.9480000000000001, 0.224, 192.0, 0.0, 0.0, 0.0, 0.0, 0.0, 0.0, 0.0, 0.0, 0.0, 1.7447429014007156E9, 0.0, 2025-04-15 13:48:21.400
158.0, -21036.34429411224, 5944.468789633369, 26701.23746409863, -13423.340132634656, -49735.15716018166, 38980.123577132654, -23601.206970358726, 62856.4358182473, -5882.755623192265, -20160.066504486385, -9877.81702015603, 8818.769016119126, 4639.708058799274, 4713.759388179707, 13233.730284420286, -187500.02235174447, -0.124, 0.9480000000000001, 0.224, 192.0, 0.0, 0.0, 0.0, 0.0, 0.0, 0.0, 0.0, 0.0, 0.0, 1.7447429014087596E9, 0.0, 2025-04-15 13:48:21.408
160.0, -21024.050834661823, 6003.745615928843, 26712.390984581827, -13411.672522028986, -49624.5607286168, 39017.182769439554, -23589.941691153253, 62940.567784377075, -5875.267788799738, -20148.60005958081, -9846.345763962956, 8836.315135516541, 4671.469887670265, 4749.3210136081, 13279.05962217565, -187500.02235174447, -0.128, 0.9560000000000001, 0.222, 192.0, 126.0, 0.0, 14.5, 112.0, 3.0, 120.0, 0.0, 0.0, 0.0, 1.744742901417816E9, 0.0, 2025-04-15 13:48:21.417
162.0, -21010.997415899925, 5958.997423529318, 26692.98967039462, -13416.098167431137, -49795.70803591109, 38982.582269022736, -23609.410060573824, 62866.44939976328, -5875.78187892221, -20139.055864698395, -9863.914235104829, 8840.897243129879, 4649.296957170601, 4735.529987279176, 13238.200633311348, -187500.02235174447, -0.128, 0.9560000000000001, 0.222, 192.0, 0.0, 0.0, 0.0, 0.0, 0.0, 0.0, 0.0, 0.0, 0.0, 1.7447429014248247E9, 0.0, 2025-04-15 13:48:21.424
164.0, -20999.709784949995, 6008.193613075449, 26717.598941039916, -13406.017530681793, -49676.70734843104, 39031.0632027463, -23584.130237594873, 62962.22662475427, -5860.3815269925035, -20135.166661163174, -9839.66259237082, 8860.007984639167, 4670.575817892053, 4761.525066080698, 13274.209293628848, -187500.02235174447, -0.128, 0.9560000000000001, 0.222, 192.0, 0.0, 0.0, 0.0, 0.0, 0.0, 0.0, 0.0, 0.0, 0.0, 1.744742901432871E9, 0.0, 2025-04-15 13:48:21.432
166.0, -21003.956616396503, 5951.4201821589695, 26704.880798444847, -13413.259495885313, -49840.63504226626, 38991.29944936031, -23598.18948485726, 62888.979958174226, -5859.599215936568, -20129.08698667133, -9852.313679732524, 8853.32481304703, 4652.381497905433, 4747.488170562765, 13262.38522081199, -187500.02235174447, -0.128, 0.9560000000000001, 0.222, 192.0, 0.0, 0.0, 0.0, 0.0, 0.0, 0.0, 0.0, 0.0, 0.0, 1.7447429014409664E9, 0.0, 2025-04-15 13:48:21.440
168.0, -21005.811811186293, 6004.393816518047, 26732.507554591604, -13410.286713872758, -49700.17668010911, 39035.220627214985, -23578.229377058673, 62994.72606119228, -5861.365003748537, -20147.5048241025, -9841.338973204967, 8849.882644400912, 4666.060765512081, 4749.3210136081, 13291.4871920928, -187500.02235174447, -0.128, 0.9560000000000001, 0.222, 192.0, 0.0, 0.0, 0.0, 0.0, 0.0, 0.0, 0.0, 0.0, 0.0, 1.7447429014489515E9, 0.0, 2025-04-15 13:48:21.448
170.0, -21001.34146229523, 5962.238426475337, 26720.191743396732, -13408.587981294153, -49849.82160923739, 38996.485054073935, -23598.703574979732, 62914.46094685328, -5864.427192738914, -20134.317294873872, -9844.46821742871, 8858.041031127099, 4658.751745075196, 4746.683507762374, 13281.473610576822, -187500.02235174447, -0.126, 0.96, 0.222, 192.0, 126.0, 8.0, 15.0, 0.0, 3.0, 120.0, 0.0, 0.0, 0.0, 1.7447429014569843E9, 0.0, 2025-04-15 13:48:21.456
172.0, -21004.180133841055, 6004.080892095672, 26739.63776107285, -13410.934914461961, -49737.705259049566, 39036.137048737655, -23568.03698158705, 62987.90877913342, -5855.665308912434, -20134.898440229706, -9833.113531245415, 8861.170275350843, 4678.3542249625, 4748.002260685237, 13287.553285068667, -187500.02235174447, -0.126, 0.96, 0.222, 192.0, 0.0, 0.0, 0.0, 0.0, 0.0, 0.0, 0.0, 0.0, 0.0, 1.744742901465029E9, 0.0, 2025-04-15 13:48:21.465
174.0, -20994.524180236363, 5951.375478670058, 26720.079984674452, -13416.433443597967, -49871.18987693666, 38989.53366154834, -23602.637482003865, 62904.96145545977, -5853.564244933635, -20148.84592876982, -9836.779217336085, 8855.291766559098, 4676.342567961522, 4737.765161724707, 13286.078069934616, -187500.02235174447, -0.126, 0.96, 0.222, 192.0, 0.0, 0.0, 0.0, 0.0, 0.0, 0.0, 0.0, 0.0, 0.0, 1.744742901474169E9, 0.0, 2025-04-15 13:48:21.474
176.0, -20996.66994770407, 5995.743691413843, 26750.92539202278, -13402.642417269042, -49793.53991669892, 39034.34890918123, -23561.33145825046, 62947.74269434723, -5840.510826171735, -20136.03837919693, -9829.51490038811, 8870.893284188902, 4691.497050702221, 4743.196635627346, 13279.707822764853, -187500.02235174447, -0.126, 0.96, 0.222, 192.0, 0.0, 0.0, 0.0, 0.0, 0.0, 0.0, 0.0, 0.0, 0.0, 1.7447429014801452E9, 0.0, 2025-04-15 13:48:21.480
178.0, -20989.71855517847, 5967.580493400156, 26741.53765935155, -13389.4101845515, -49887.7748713225, 39013.22651067097, -23585.024307373085, 62885.06840289455, -5842.231910494794, -20129.958704705085, -9820.104815972427, 8874.223694112741, 4688.010178567192, 4754.79719099965, 13310.620285346544, -187500.02235174447, -0.126, 0.96, 0.222, 192.0, 0.0, 0.0, 0.0, 0.0, 0.0, 0.0, 0.0, 0.0, 0.0, 1.7447429014891474E9, 0.0, 2025-04-15 13:48:21.489
180.0, -20995.06062210329, 5998.783528659765, 26763.509424151114, -13378.144905346026, -49814.93053614265, 39057.8182408593, -23546.311085976493, 62927.559069104085, -5830.631355122489, -20111.809088207377, -9817.601420593432, 8890.987502454222, 4695.542716448631, 4762.79911551465, 13292.649482804476, -187500.02235174447, -0.116, 0.96, 0.222, 192.0, 126.0, 48.0, 15.0, 0.0, 3.0, 120.0, 0.0, 0.0, 0.0, 1.7447429014972048E9, 0.0, 2025-04-15 13:48:21.497
182.0, -20983.571825453262, 5982.287941251748, 26741.448252373728, -13381.698832714419, -49861.39981286524, 39037.25463596042, -23577.782342169565, 62892.55623728708, -5833.179453990395, -20121.44269006761, -9807.051397210527, 8886.897133218901, 4694.559239692598, 4772.924455752905, 13326.4453204209, -187500.02235174447, -0.116, 0.96, 0.222, 192.0, 0.0, 0.0, 0.0, 0.0, 0.0, 0.0, 0.0, 0.0, 0.0, 1.7447429015052383E9, 0.0, 2025-04-15 13:48:21.505
184.0, -20992.40076451311, 6004.6173339626, 26759.57551712698, -13382.168219347981, -49822.440722279636, 39060.90278159414, -23547.875708088366, 62912.8516212525, -5825.445750408859, -20105.952931160085, -9813.265182169102, 8891.121612920953, 4698.202574038813, 4768.163534183924, 13295.689320050398, -187500.02235174447, -0.116, 0.96, 0.222, 192.0, 0.0, 0.0, 0.0, 0.0, 0.0, 0.0, 0.0, 0.0, 0.0, 1.7447429015122688E9, 0.0, 2025-04-15 13:48:21.512
186.0, -20997.094630848722, 5991.049825078228, 26730.987635968642, -13395.5122107878, -49813.835300664345, 39039.690976106045, -23588.19825508574, 62920.004179478194, -5839.1920732488725, -20124.72839650254, -9804.056263453516, 8879.789278482112, 4700.236582784246, 4772.432717374887, 13336.101274025594, -187500.02235174447, -0.116, 0.96, 0.222, 192.0, 0.0, 0.0, 0.0, 0.0, 0.0, 0.0, 0.0, 0.0, 0.0, 1.744742901521328E9, 0.0, 2025-04-15 13:48:21.521
188.0, -20990.456162745497, 5997.218906547893, 26755.596906613937, -13384.023414137771, -49822.84305367983, 39047.15645875412, -23559.56567043849, 62910.862315995975, -5824.417570163914, -20115.206553364584, -9821.423568895289, 8875.631854013427, 4693.039321069637, 4757.926435223393, 13284.558151311656, -187500.02235174447, -0.116, 0.96, 0.222, 192.0, 0.0, 0.0, 0.0, 0.0, 0.0, 0.0, 0.0, 0.0, 0.0, 1.7447429015293608E9, 0.0, 2025-04-15 13:48:21.529
190.0, -20995.977043625957, 5991.541563456245, 26741.157679695807, -13392.382966564057, -49791.99764633151, 39037.14287723814, -23587.304185307526, 62929.32485691606, -5830.2737272112045, -20120.70508250059, -9801.664626796797, 8876.57062728055, 4707.679713687863, 4783.988569258281, 13335.944811814406, -187500.02235174447, -0.117, 0.9570000000000001, 0.224, 192.0, 126.0, 40.0, 14.5, 104.0, 3.5, 8.0, 0.0, 0.0, 0.0, 1.7447429015364168E9, 0.0, 2025-04-15 13:48:21.536
192.0, -20999.843895416725, 5982.064423807195, 26760.648400860835, -13390.728937474363, -49846.96058594711, 39038.39457492764, -23548.389798210836, 62892.73505124272, -5823.098817241052, -20116.145326631704, -9818.89782177184, 8872.055574900576, 4694.894515859427, 4758.03819394567, 13280.736003009797, -187500.02235174447, -0.117, 0.9570000000000001, 0.224, 192.0, 0.0, 0.0, 0.0, 0.0, 0.0, 0.0, 0.0, 0.0, 0.0, 1.7447429015454352E9, 0.0, 2025-04-15 13:48:21.545
194.0, -21011.220933344477, 5987.942932598941, 26743.95164775272, -13401.927161446472, -49780.19592525911, 39048.54226691035, -23568.372257753883, 62935.85156629701, -5834.945241802364, -20127.477661070545, -9796.277856383069, 8877.911731947868, 4712.664152701396, 4777.75243255525, 13345.377247974546, -187500.02235174447, -0.117, 0.9570000000000001, 0.224, 192.0, 0.0, 0.0, 0.0, 0.0, 0.0, 0.0, 0.0, 0.0, 0.0, 1.7447429015535343E9, 0.0, 2025-04-15 13:48:21.553
196.0, -21028.1635556416, 5954.527074638257, 26738.698987805725, -13405.257571370314, -49868.15003969074, 39036.98641502696, -23557.79988262652, 62887.705908740274, -5848.7586198757435, -20126.78475699243, -9830.453673655233, 8862.243159084697, 4687.630198911453, 4749.075144419092, 13283.284101877702, -187500.02235174447, -0.117, 0.9570000000000001, 0.224, 192.0, 0.0, 0.0, 0.0, 0.0, 0.0, 0.0, 0.0, 0.0, 0.0, 1.7447429015605502E9, 0.0, 2025-04-15 13:48:21.560
198.0, -21040.12173892519, 5964.4512491764135, 26730.317083634985, -13399.848449212128, -49790.410672475184, 39052.900857079134, -23575.56951946849, 62936.723284330765, -5865.477724728314, -20147.057789213395, -9819.590725849954, 8861.840827684502, 4695.229792026257, 4766.218932416312, 13333.553175157687, -187500.02235174447, -0.117, 0.9570000000000001, 0.224, 192.0, 0.0, 0.0, 0.0, 0.0, 0.0, 0.0, 0.0, 0.0, 0.0, 1.7447429015685625E9, 0.0, 2025-04-15 13:48:21.568
200.0, -21059.768922301402, 5908.638943271511, 26739.168374439287, -13382.995233892827, -49958.205218101175, 39031.7114033355, -23557.75517913761, 62833.63703890289, -5859.509808958746, -20116.726471987542, -9843.931775561783, 8862.600786995983, 4682.154021519902, 4749.499827563743, 13277.53970355269, -187500.02235174447, -0.1165, 0.9485000000000001, 0.224, 192.0, 126.0, 48.0, 14.5, 48.0, 3.5, 0.0, 0.0, 0.0, 0.0, 1.7447429015775905E9, 0.0, 2025-04-15 13:48:21.577
202.0, -21115.64828343967, 5894.669102986944, 26737.268476160585, -13391.22067585238, -49857.42120235219, 39054.35372046873, -23567.545243209035, 62896.71366175576, -5888.88000117302, -20144.777911278954, -9826.408007908823, 8859.18097009432, 4702.069425829581, 4777.283045921689, 13340.348105472101, -187500.02235174447, -0.1165, 0.9485000000000001, 0.224, 192.0, 0.0, 0.0, 0.0, 0.0, 0.0, 0.0, 0.0, 0.0, 0.0, 1.7447429015856552E9, 0.0, 2025-04-15 13:48:21.585
204.0, -21169.359525365773, 5787.604247046023, 26734.563915081493, -13394.036995653749, -50058.13986756085, 39007.77268502387, -23578.408191014314, 62768.66051777131, -5908.326018849137, -20143.146233933716, -9862.304909504046, 8836.315135516541, 4677.549562162109, 4756.428868344888, 13274.969252940327, -187500.02235174447, -0.1165, 0.9485000000000001, 0.224, 192.0, 0.0, 0.0, 0.0, 0.0, 0.0, 0.0, 0.0, 0.0, 0.0, 1.7447429015926683E9, 0.0, 2025-04-15 13:48:21.592
206.0, -21217.48283117805, 5767.778249714166, 26717.330720106453, -13404.698777758931, -49971.9962444301, 39031.28672019085, -23585.00195562863, 62818.639018373375, -5948.156827468494, -20180.630109385267, -9867.065831073027, 8818.009056807645, 4685.707948888296, 4764.699013793351, 13308.720387067842, -187500.02235174447, -0.1165, 0.9485000000000001, 0.224, 192.0, 0.0, 0.0, 0.0, 0.0, 0.0, 0.0, 0.0, 0.0, 0.0, 1.7447429016007335E9, 0.0, 2025-04-15 13:48:21.600
208.0, -21270.411762048217, 5669.117649688441, 26685.77005693556, -13412.99127495185, -50180.158040542374, 38996.485054073935, -23588.220606830193, 62701.13589777183, -5979.404566217014, -20178.23847272855, -9905.935514680805, 8799.50181239865, 4656.091887485014, 4747.734039751773, 13258.473665532312, -187500.02235174447, -0.1165, 0.9485000000000001, 0.224, 192.0, 0.0, 0.0, 0.0, 0.0, 0.0, 0.0, 0.0, 0.0, 0.0, 1.7447429016097558E9, 0.0, 2025-04-15 13:48:21.609
210.0, -21322.245457440076, 5663.283844385605, 26667.352219504384, -13437.712304319419, -50056.485838471155, 39028.06806898929, -23594.38968829986, 62792.509829105125, -6024.9127179280185, -20209.754432410533, -9923.325171867034, 8776.390108631862, 4646.525340858143, 4754.864246233016, 13287.374471113024, -187500.02235174447, -0.11625, 0.9452500000000001, 0.223, 192.0, 126.0, 48.0, 14.5, 56.0, 3.0, 120.0, 0.0, 0.0, 0.0, 1.7447429016168149E9, 0.0, 2025-04-15 13:48:21.616
212.0, -21344.46309142865, 5579.9788928006765, 26656.221050765642, -13433.554879850732, -50281.03146326917, 38987.36554233617, -23596.24488308965, 62669.798752045484, -6051.064258940728, -20213.107194078828, -9967.089887510525, 8743.845968704936, 4613.109482897458, 4736.17818786838, 13236.166624565914, -187500.02235174447, -0.11625, 0.9452500000000001, 0.223, 192.0, 0.0, 0.0, 0.0, 0.0, 0.0, 0.0, 0.0, 0.0, 0.0, 1.744742901625851E9, 0.0, 2025-04-15 13:48:21.625
214.0, -21385.456190759684, 5613.215936805718, 26652.980047819623, -13464.33323196569, -50111.96286820923, 39032.359603924706, -23596.80367670103, 62807.50784963463, -6079.294512187781, -20246.701865995154, -9964.273567709157, 8728.445616775229, 4616.663410265853, 4744.448333316843, 13269.560130782143, -187500.02235174447, -0.11625, 0.9452500000000001, 0.223, 192.0, 0.0, 0.0, 0.0, 0.0, 0.0, 0.0, 0.0, 0.0, 0.0, 1.7447429016328688E9, 0.0, 2025-04-15 13:48:21.632
216.0, -21374.302670276484, 5558.3200524234835, 26647.347408216883, -13458.789999340774, -50290.24038198476, 38981.464681799975, -23610.035909418573, 62712.4011769773, -6080.38974766609, -20247.841804962376, -9986.044166808626, 8715.503956735607, 4600.637209491398, 4723.705914462318, 13236.837176899575, -187500.02235174447, -0.11625, 0.9452500000000001, 0.223, 192.0, 0.0, 0.0, 0.0, 0.0, 0.0, 0.0, 0.0, 0.0, 0.0, 1.7447429016429725E9, 0.0, 2025-04-15 13:48:21.642
218.0, -21361.830396870424, 5629.867986424922, 26659.529108945026, -13474.682089648497, -50146.608072114956, 39011.460722858996, -23603.95623492673, 62817.253210217146, -6087.832878569709, -20255.351991099356, -9976.902303326406, 8716.86741314738, 4618.473901566733, 4723.594155740042, 13256.57376725361, -187500.02235174447, -0.11625, 0.9452500000000001, 0.223, 192.0, 0.0, 0.0, 0.0, 0.0, 0.0, 0.0, 0.0, 0.0, 0.0, 1.7447429016489503E9, 0.0, 2025-04-15 13:48:21.648
220.0, -21336.863498313847, 5603.761148901123, 26646.609800649858, -13473.631557659097, -50294.8224895981, 38963.560934491274, -23630.95714222874, 62730.41668300828, -6068.8785992716075, -20237.269429835014, -9975.561198659087, 8714.811052657491, 4612.908317197361, 4713.133539334958, 13240.704028690343, -187500.02235174447, -0.11912500000000001, 0.948625, 0.2225, 192.0, 126.0, 24.0, 14.5, 96.0, 3.0, 120.0, 0.0, 0.0, 0.0, 1.74474290165699E9, 0.0, 2025-04-15 13:48:21.656
222.0, -21325.821736552924, 5664.669652541835, 26664.871175869845, -13475.509104193343, -50143.523531380124, 39004.397571611116, -23612.941636197764, 62825.90333532135, -6063.156552691049, -20255.977839944106, -9969.190951489325, 8712.508822978596, 4617.333962599511, 4700.862431628994, 13238.692371689365, -187500.02235174447, -0.11912500000000001, 0.948625, 0.2225, 192.0, 0.0, 0.0, 0.0, 0.0, 0.0, 0.0, 0.0, 0.0, 0.0, 1.7447429016650262E9, 0.0, 2025-04-15 13:48:21.665
224.0, -21290.84125648037, 5652.443248324782, 26649.51552742905, -13466.501351177854, -50254.00820422271, 38965.9972746369, -23636.142746942372, 62760.546834534034, -6056.4957328433675, -20247.551232284455, -9967.648681121907, 8724.444654517729, 4611.544860785587, 4699.342513006033, 13243.341534536068, -187500.02235174447, -0.11912500000000001, 0.948625, 0.2225, 192.0, 0.0, 0.0, 0.0, 0.0, 0.0, 0.0, 0.0, 0.0, 0.0, 1.7447429016731493E9, 0.0, 2025-04-15 13:48:21.673
226.0, -21261.269898565995, 5712.4576821872815, 26692.408525038783, -13439.723961320396, -50192.540906970615, 39008.62205131317, -23592.422734787793, 62804.870343788905, -6029.226604607893, -20230.04981637595, -9957.098657739003, 8746.30466059502, 4622.832491735518, 4700.348341506522, 13233.015028597716, -187500.02235174447, -0.11912500000000001, 0.948625, 0.2225, 192.0, 0.0, 0.0, 0.0, 0.0, 0.0, 0.0, 0.0, 0.0, 0.0, 1.744742901681151E9, 0.0, 2025-04-15 13:48:21.681
228.0, -21225.68592139315, 5705.863917572966, 26681.05383885549, -13429.218641426402, -50302.511489690725, 38979.922411432555, -23622.172906657805, 62747.761636705596, -6007.254839808326, -20217.734005181075, -9930.500081837188, 8764.54368407055, 4629.649773794386, 4718.609716726508, 13267.190845869882, -187500.02235174447, -0.11912500000000001, 0.948625, 0.2225, 192.0, 0.0, 0.0, 0.0, 0.0, 0.0, 0.0, 0.0, 0.0, 0.0, 1.7447429016881816E9, 0.0, 2025-04-15 13:48:21.688
230.0, -21200.786078069938, 5771.890970693943, 26729.043034201033, -13398.417937566988, -50296.29770473215, 39023.39655439813, -23571.367391510892, 62770.24749162764, -5970.575627157167, -20187.08976353285, -9913.333942095513, 8794.919704785312, 4641.943233244805, 4726.455179030321, 13249.62237472801, -187500.02235174447, -0.1235625, 0.9513125, 0.22325, 192.0, 126.0, 0.0, 14.5, 104.0, 3.5, 0.0, 0.0, 0.0, 0.0, 1.7447429016972256E9, 0.0, 2025-04-15 13:48:21.697
232.0, -21175.640365557716, 5786.4196045898925, 26714.93908344973, -13395.758079976807, -50355.4851240498, 39008.91262399109, -23605.00676691613, 62764.50309330262, -5955.13057173855, -20187.067411788394, -9881.974444624717, 8821.384170220395, 4650.034564737626, 4742.74960073824, 13303.333616654112, -187500.02235174447, -0.1235625, 0.9513125, 0.22325, 192.0, 0.0, 0.0, 0.0, 0.0, 0.0, 0.0, 0.0, 0.0, 0.0, 1.7447429017052393E9, 0.0, 2025-04-15 13:48:21.705
234.0, -21145.398455309685, 5823.277631196694, 26749.651342588826, -13381.341204803135, -50411.38683693252, 39016.78043803936, -23565.511234463604, 62745.526462260066, -5925.290992890715, -20165.09564698883, -9877.638206200387, 8838.282089028608, 4657.388288663422, 4732.378391310977, 13266.944976680872, -187500.02235174447, -0.1235625, 0.9513125, 0.22325, 192.0, 0.0, 0.0, 0.0, 0.0, 0.0, 0.0, 0.0, 0.0, 0.0, 1.7447429017122638E9, 0.0, 2025-04-15 13:48:21.712
236.0, -21115.64828343967, 5832.598308634557, 26737.939028494246, -13373.898073899518, -50483.20299186742, 39001.469493087476, -23595.104944122428, 62712.244714766115, -5907.946039193397, -20167.152007478715, -9841.51778716061, 8850.41908626784, 4678.935370318338, 4751.958519453826, 13308.563924856655, -187500.02235174447, -0.1235625, 0.9513125, 0.22325, 192.0, 0.0, 0.0, 0.0, 0.0, 0.0, 0.0, 0.0, 0.0, 0.0, 1.744742901720364E9, 0.0, 2025-04-15 13:48:21.720
238.0, -21095.397602963163, 5862.907274115953, 26763.06238926201, -13364.510341228288, -50564.89861785157, 39016.37810663916, -23568.551071709524, 62674.31380442546, -5887.538896505702, -20149.18120493665, -9839.595537137453, 8862.489028273705, 4675.537905161132, 4742.459028060321, 13264.86626444653, -187500.02235174447, -0.1235625, 0.9513125, 0.22325, 192.0, 0.0, 0.0, 0.0, 0.0, 0.0, 0.0, 0.0, 0.0, 0.0, 1.7447429017293634E9, 0.0, 2025-04-15 13:48:21.729
240.0, -21079.416105677617, 5884.029672626219, 26745.940953009245, -13369.830056408651, -50597.19688858949, 39017.607452584205, -23599.888217435866, 62659.00285947357, -5887.78476569471, -20154.523271861468, -9816.103853714927, 8864.835961441513, 4686.937294833338, 4769.459935362332, 13323.87486980854, -187500.02235174447, -0.12878125, 0.9516562500000001, 0.22462500000000002, 192.0, 125.5, 104.0, 14.5, 96.0, 3.5, 8.0, 0.0, 0.0, 0.0, 1.7447429017364025E9, 0.0, 2025-04-15 13:48:21.736
242.0, -21075.750419586948, 5887.114213361051, 26764.135272995863, -13377.02731812326, -50738.90694843614, 39019.57440609627, -23572.552033967022, 62581.91169284722, -5863.533122960702, -20128.349379104304, -9833.940545790261, 8867.629929498426, 4681.818745353073, 4762.687356792374, 13271.683546505397, -187500.02235174447, -0.12878125, 0.9516562500000001, 0.22462500000000002, 192.0, 0.0, 0.0, 0.0, 0.0, 0.0, 0.0, 0.0, 0.0, 0.0, 1.7447429017444675E9, 0.0, 2025-04-15 13:48:21.744
244.0, -21086.903940070148, 5900.838184456609, 26740.308313406505, -13409.392644094545, -50714.38708476866, 39020.51317936339, -23606.504333794634, 62611.25953331704, -5875.312492288648, -20146.11901594627, -9823.524632874089, 8862.734897462715, 4703.49993747472, 4778.132412210991, 13332.92732631294, -187500.02235174447, -0.12878125, 0.9516562500000001, 0.22462500000000002, 192.0, 0.0, 0.0, 0.0, 0.0, 0.0, 0.0, 0.0, 0.0, 0.0, 1.744742901752483E9, 0.0, 2025-04-15 13:48:21.752
246.0, -21096.448134952563, 5876.787707422699, 26728.417185356284, -13430.246821671346, -50858.712298716586, 38995.61333604018, -23598.994147657653, 62535.62123008028, -5876.787707422699, -20146.27547815746, -9866.261168272635, 8830.816606380535, 4680.6564546413965, 4735.351173323533, 13259.34538356607, -187500.02235174447, -0.12878125, 0.9516562500000001, 0.22462500000000002, 192.0, 0.0, 0.0, 0.0, 0.0, 0.0, 0.0, 0.0, 0.0, 0.0, 1.7447429017615345E9, 0.0, 2025-04-15 13:48:21.761
248.0, -21111.043824081877, 5891.830431441121, 26693.548464006006, -13455.057258016737, -50771.29462615188, 39012.46655135948, -23620.34006361247, 62606.476260003605, -5891.361044807559, -20176.33857444985, -9864.070697316016, 8815.907992828847, 4686.803184366606, 4737.027554157681, 13299.355006141068, -187500.02235174447, -0.12878125, 0.9516562500000001, 0.22462500000000002, 192.0, 0.0, 0.0, 0.0, 0.0, 0.0, 0.0, 0.0, 0.0, 0.0, 1.7447429017685666E9, 0.0, 2025-04-15 13:48:21.768
250.0, -21101.52198094392, 5862.884922371498, 26703.360879821885, -13440.103940976136, -50929.00853502852, 38991.165338893574, -23594.7696679556, 62527.32873288736, -5892.948018663886, -20164.581556866357, -9895.161973853346, 8802.228725222198, 4651.174503704847, 4712.664152701396, 13230.66809542991, -187500.02235174447, -0.12878125, 0.9516562500000001, 0.22462500000000002, 192.0, 0.0, 0.0, 0.0, 0.0, 0.0, 0.0, 0.0, 0.0, 0.0, 1.7447429017766073E9, 0.0, 2025-04-15 13:48:21.776
252.0, -21099.398565220665, 5908.214260126861, 26714.022661927065, -13435.432426384978, -50813.606478405774, 39026.6599090886, -23590.746353953644, 62611.25953331704, -5889.751719206777, -20172.51642614799, -9861.813171126028, 8821.451225453762, 4670.575817892053, 4741.341440837556, 13290.190790914392, -187500.02235174447, -0.136, 0.9480000000000001, 0.228, 192.0, 125.5, 96.0, 14.5, 80.0, 3.5, 16.0, 0.0, 0.0, 0.0, 1.7447429017846773E9, 0.0, 2025-04-15 13:48:21.784
254.0, -21087.68625112608, 5882.822678425632, 26724.885609732344, -13419.875612244085, -50963.56433195643, 39000.46366458698, -23589.740525453155, 62534.14601494623, -5879.425213268425, -20156.512577117992, -9874.821886399019, 8820.26658299763, 4656.740088074218, 4719.727303949274, 13246.806054926641, -187500.02235174447, -0.136, 0.9480000000000001, 0.228, 192.0, 0.0, 0.0, 0.0, 0.0, 0.0, 0.0, 0.0, 0.0, 0.0, 1.7447429017926853E9, 0.0, 2025-04-15 13:48:21.792
0.0, -21087.976823804, 5925.894489991008, 26743.05757797451, -13412.454833084921, -50809.404350448174, 39033.79011556985, -23598.457705790726, 62637.74635049658, -5874.217256810339, -20159.239489941538, -9838.433246425779, 8840.964298363246, 4681.997559308715, 4743.330746094078, 13304.317093410147, -187500.02235174447, -0.136, 0.9480000000000001, 0.228, 192.0, 0.0, 0.0, 0.0, 0.0, 0.0, 0.0, 0.0, 0.0, 0.0, 1.7447429018007455E9, 0.0, 2025-04-15 13:48:21.800
2.0, -21080.243120222465, 5881.794498180688, 26743.57166809698, -13407.157469649013, -50949.438029460674, 38997.66969653007, -23602.793944215053, 62565.86314032831, -5866.349442762071, -20154.56797535038, -9847.150426763348, 8835.264603527141, 4661.903341043394, 4724.912908662905, 13262.564034767633, -187500.02235174447, -0.136, 0.9480000000000001, 0.228, 192.0, 0.0, 0.0, 0.0, 0.0, 0.0, 0.0, 0.0, 0.0, 0.0, 1.7447429018087814E9, 0.0, 2025-04-15 13:48:21.808
4.0, -21075.102218997745, 5933.583490083634, 26757.407397914816, -13408.99031269435, -50791.14297522819, 39036.29351094884, -23585.806618429022, 62673.15151371378, -5852.737230388789, -20164.693315588633, -9821.155347961825, 8844.51822573164, 4684.992693065727, 4743.2860426051675, 13300.383186386012, -187500.02235174447, -0.136, 0.9480000000000001, 0.228, 192.0, 0.0, 0.0, 0.0, 0.0, 0.0, 0.0, 0.0, 0.0, 0.0, 1.744742901817829E9, 0.0, 2025-04-15 13:48:21.817
6.0, -21068.620213105707, 5895.317303576148, 26737.9613802387, -13416.27698138678, -50941.39140145676, 38984.124539390155, -23612.136973397373, 62591.657053429735, -5847.305756486149, -20160.670001586677, -9836.332182446979, 8840.338449518496, 4661.232788709734, 4721.426036527877, 13263.994546412772, -187500.02235174447, -0.132, 0.9440000000000001, 0.222, 192.0, 125.5, 112.0, 14.5, 64.0, 3.0, 120.0, 0.0, 0.0, 0.0, 1.7447429018239057E9, 0.0, 2025-04-15 13:48:21.823
8.0, -21066.519149126907, 5956.9410630394295, 26747.10324372092, -13415.807594753218, -50758.934111468094, 39032.091382991246, -23592.57919699898, 62720.134880558835, -5849.5185791872245, -20165.453274900112, -9815.94739150374, 8851.536673490606, 4679.382405207444, 4731.394914554944, 13292.58242757111, -187500.02235174447, -0.132, 0.9440000000000001, 0.222, 192.0, 0.0, 0.0, 0.0, 0.0, 0.0, 0.0, 0.0, 0.0, 0.0, 1.7447429018328803E9, 0.0, 2025-04-15 13:48:21.832
10.0, -21046.02259946139, 5914.74096950781, 26738.34135989444, -13405.928123703972, -50897.67138930219, 38989.46660631497, -23616.20499088824, 62645.18948140019, -5832.017163278719, -20148.577707836357, -9815.65681882582, 8854.978842136723, 4672.609826637487, 4729.047981387136, 13278.411421586445, -187500.02235174447, -0.132, 0.9440000000000001, 0.222, 192.0, 0.0, 0.0, 0.0, 0.0, 0.0, 0.0, 0.0, 0.0, 0.0, 1.744742901840936E9, 0.0, 2025-04-15 13:48:21.840
12.0, -21043.854480249225, 5960.383231685547, 26758.52498513758, -13405.816364981696, -50753.25676837644, 39025.05058348782, -23599.463534291215, 62743.291287814536, -5826.652744609445, -20152.51161486049, -9800.36822561839, 8865.104182374977, 4687.674902400363, 4738.815693714106, 13294.281160149714, -187500.02235174447, -0.132, 0.9440000000000001, 0.222, 192.0, 0.0, 0.0, 0.0, 0.0, 0.0, 0.0, 0.0, 0.0, 0.0, 1.7447429018489792E9, 0.0, 2025-04-15 13:48:21.848
14.0, -21050.44824486354, 5918.540766065213, 26733.088699947442, -13416.27698138678, -50873.866781457284, 38976.994332908915, -23634.309903897036, 62677.95713877167, -5827.0997794985515, -20156.80314979591, -9808.03487396656, 8851.380211279418, 4678.153059262402, 4731.685487232863, 13286.368642612535, -187500.02235174447, -0.132, 0.9440000000000001, 0.222, 192.0, 0.0, 0.0, 0.0, 0.0, 0.0, 0.0, 0.0, 0.0, 0.0, 1.744742901856028E9, 0.0, 2025-04-15 13:48:21.856
16.0, -21041.50754708142, 5963.534827653745, 26756.20040371423, -13404.497612058833, -50781.64348383468, 39009.53847283584, -23599.776458713586, 62735.33406678845, -5828.552642888146, -20157.697219574122, -9813.153423446825, 8848.429781011317, 4682.221076753268, 4728.578594753575, 13272.935244194896, -187500.02235174447, -0.126, 0.9480000000000001, 0.224, 192.0, 126.0, 8.0, 14.5, 80.0, 3.5, 0.0, 0.0, 0.0, 0.0, 1.7447429018650408E9, 0.0, 2025-04-15 13:48:21.865
18.0, -21071.660050351627, 5918.36195210957, 26716.52605730606, -13428.391626881556, -50867.49653428752, 38971.71932121746, -23643.87645052391, 62695.10092676889, -5824.529328886191, -20161.31820217588, -9811.99113273515, 8845.389943765396, 4685.21621051028, 4730.74671396574, 13283.82054374463, -187500.02235174447, -0.126, 0.9480000000000001, 0.224, 192.0, 0.0, 0.0, 0.0, 0.0, 0.0, 0.0, 0.0, 0.0, 0.0, 1.7447429018721583E9, 0.0, 2025-04-15 13:48:21.872
20.0, -21071.525939884894, 5947.419219901469, 26739.213077928198, -13417.171051164993, -50816.71337088506, 38996.37329535166, -23611.19820013025, 62724.80639515, -5839.214424993328, -20166.6602691007, -9840.08727551547, 8830.593088935982, 4667.06659401257, 4711.233641056257, 13250.494092761766, -187500.02235174447, -0.126, 0.9480000000000001, 0.224, 192.0, 0.0, 0.0, 0.0, 0.0, 0.0, 0.0, 0.0, 0.0, 0.0, 1.7447429018801513E9, 0.0, 2025-04-15 13:48:21.880
22.0, -21081.874797567703, 5912.125815406539, 26702.913844932777, -13432.929031005982, -50864.68021448615, 38967.11486185966, -23653.97943901771, 62701.18060126074, -5845.0035268072525, -20169.834216813353, -9831.66066785582, 8826.927402845313, 4671.603998136998, 4722.476568517276, 13275.572750040621, -187500.02235174447, -0.126, 0.9480000000000001, 0.224, 192.0, 0.0, 0.0, 0.0, 0.0, 0.0, 0.0, 0.0, 0.0, 0.0, 1.7447429018881931E9, 0.0, 2025-04-15 13:48:21.888
24.0, -21082.23242547899, 5927.280298147238, 26723.56685680948, -13416.209926153413, -50808.711446370064, 39001.938879721034, -23607.71132799522, 62739.089159856936, -5857.945186846875, -20173.835179070855, -9851.62077565441, 8818.992533563678, 4661.098678243003, 4706.182146809358, 13238.267688544714, -187500.02235174447, -0.126, 0.9480000000000001, 0.224, 192.0, 0.0, 0.0, 0.0, 0.0, 0.0, 0.0, 0.0, 0.0, 0.0, 1.7447429018972092E9, 0.0, 2025-04-15 13:48:21.897
26.0, -21079.572567888805, 5924.17340566795, 26704.791391467024, -13412.097205173637, -50840.85325489679, 38990.137158648635, -23622.70934852473, 62715.9998078346, -5845.7634861187325, -20167.017897011985, -9832.80060682304, 8830.66014416935, 4672.073384770559, 4729.249147087235, 13288.313244380146, -187500.02235174447, -0.11800000000000001, 0.9480000000000001, 0.228, 192.0, 126.0, 40.0, 14.5, 80.0, 3.5, 16.0, 0.0, 0.0, 0.0, 1.7447429019042747E9, 0.0, 2025-04-15 13:48:21.904
28.0, -21076.04099226487, 5934.186987183927, 26727.29959813352, -13401.74834749083, -50856.00773763749, 39007.86209200169, -23589.941691153253, 62699.32540647095, -5846.6799076414, -20158.390123652236, -9852.04545879906, 8828.22380402372, 4664.294977700112, 4714.74286493574, 13249.734133450287, -187500.02235174447, -0.11800000000000001, 0.9480000000000001, 0.228, 192.0, 0.0, 0.0, 0.0, 0.0, 0.0, 0.0, 0.0, 0.0, 0.0, 1.7447429019122822E9, 0.0, 2025-04-15 13:48:21.912
30.0, -21076.97976553199, 5920.753588766288, 26711.832190970446, -13409.213830138902, -50855.560702748386, 39000.128388420155, -23613.187505386773, 62693.223380234645, -5849.20565476485, -20162.100513231817, -9832.599441122942, 8831.040123825089, 4672.565123148575, 4740.737943737262, 13306.664026577953, -187500.02235174447, -0.11800000000000001, 0.9480000000000001, 0.228, 192.0, 0.0, 0.0, 0.0, 0.0, 0.0, 0.0, 0.0, 0.0, 0.0, 1.7447429019213855E9, 0.0, 2025-04-15 13:48:21.921
32.0, -21080.287823711376, 5916.685571275422, 26732.373444124874, -13405.682254514964, -50907.50615686252, 39001.35773436519, -23580.308089293016, 62656.72298153913, -5845.338802974082, -20157.47370212957, -9851.643127398864, 8826.145091789376, 4658.01413750817, 4717.2239085702795, 13258.473665532312, -187500.02235174447, -0.11800000000000001, 0.9480000000000001, 0.228, 192.0, 0.0, 0.0, 0.0, 0.0, 0.0, 0.0, 0.0, 0.0, 0.0, 1.7447429019283652E9, 0.0, 2025-04-15 13:48:21.928
34.0, -21082.433591179084, 5928.733161536832, 26718.403603840306, -13419.406225610523, -50865.44017379763, 38992.797016238816, -23608.560694284522, 62679.544112628, -5859.710974658844, -20171.264728458493, -9830.721894588696, 8834.906975615857, 4666.150172489903, 4731.3725628104885, 13314.621247604044, -187500.02235174447, -0.11800000000000001, 0.9480000000000001, 0.228, 192.0, 0.0, 0.0, 0.0, 0.0, 0.0, 0.0, 0.0, 0.0, 0.0, 1.7447429019364264E9, 0.0, 2025-04-15 13:48:21.936
36.0, -21081.427762678595, 5906.761396737265, 26724.99736845462, -13420.143833177548, -50955.16007604123, 38983.74455973441, -23587.43829577426, 62617.450966531156, -5856.380564735004, -20168.51546389049, -9858.750982135653, 8823.84286211048, 4651.174503704847, 4703.969324108282, 13249.443560772368, -187500.02235174447, -0.112, 0.9480000000000001, 0.22, 192.0, 126.0, 64.0, 14.5, 80.0, 3.0, 112.0, 0.0, 0.0, 0.0, 1.744742901944477E9, 0.0, 2025-04-15 13:48:21.944
38.0, -21089.60850114924, 5925.514510335268, 26707.674766501757, -13431.61027808312, -50855.82892368185, 38996.9544407075, -23613.589836786967, 62677.39834516029, -5866.572960206623, -20183.42407744218, -9835.773388835596, 8821.227708009208, 4665.949006789805, 4725.225833085279, 13301.992511986795, -187500.02235174447, -0.112, 0.9480000000000001, 0.22, 192.0, 0.0, 0.0, 0.0, 0.0, 0.0, 0.0, 0.0, 0.0, 0.0, 1.74474290195352E9, 0.0, 2025-04-15 13:48:21.953
40.0, -21079.192588233065, 5900.569963523146, 26721.66695853078, -13419.249763399335, -50979.56818098643, 38975.83204219724, -23592.15451385433, 62592.30525401894, -5868.338748018593, -20164.13452197725, -9864.405973482844, 8813.069321283021, 4644.960718746272, 4701.957667107305, 13233.126787319994, -187500.02235174447, -0.112, 0.9480000000000001, 0.22, 192.0, 0.0, 0.0, 0.0, 0.0, 0.0, 0.0, 0.0, 0.0, 0.0, 1.7447429019605393E9, 0.0, 2025-04-15 13:48:21.960
42.0, -21076.666841109614, 5941.004269242796, 26721.979882953154, -13424.055388457225, -50874.62674076876, 38993.355809850196, -23596.401345300837, 62647.17878665672, -5862.057907826652, -20168.98485052405, -9831.213632966714, 8834.437588982295, 4670.508762658687, 4730.03145814317, 13293.051814204671, -187500.02235174447, -0.112, 0.9480000000000001, 0.22, 192.0, 0.0, 0.0, 0.0, 0.0, 0.0, 0.0, 0.0, 0.0, 0.0, 1.7447429019695816E9, 0.0, 2025-04-15 13:48:21.969
44.0, -21075.258681208932, 5900.815832712154, 26717.598941039916, -13424.547126835243, -50993.31450382644, 38968.29950431579, -23602.324557581494, 62576.43551545567, -5864.404840994459, -20165.743847578033, -9851.3749064654, 8827.508548201151, 4641.764419289162, 4701.085949073547, 13243.542700236167, -187500.02235174447, -0.112, 0.9480000000000001, 0.22, 192.0, 0.0, 0.0, 0.0, 0.0, 0.0, 0.0, 0.0, 0.0, 0.0, 1.744742901976643E9, 0.0, 2025-04-15 13:48:21.976
46.0, -21068.821378805802, 5958.03629851774, 26728.19366791173, -13414.712359274909, -50864.00966215249, 39005.73867627844, -23600.737583725167, 62652.40909485926, -5865.656538683956, -20167.017897011985, -9826.430359653277, 8835.89045237189, 4665.300806200601, 4726.6786964748735, 13292.135392682005, -187500.02235174447, -0.112, 0.9500000000000001, 0.228, 192.0, 126.0, 64.0, 14.5, 88.0, 3.5, 16.0, 0.0, 0.0, 0.0, 1.7447429019846914E9, 0.0, 2025-04-15 13:48:21.984
48.0, -21087.999175548455, 5909.801233983188, 26711.273397359062, -13422.155490178526, -50973.57791347241, 38973.32864681824, -23613.746298998154, 62590.450059229144, -5863.734288660799, -20157.98779225204, -9846.189301751769, 8825.31807724453, 4646.123009457947, 4710.831309656061, 13249.734133450287, -187500.02235174447, -0.112, 0.9500000000000001, 0.228, 192.0, 0.0, 0.0, 0.0, 0.0, 0.0, 0.0, 0.0, 0.0, 0.0, 1.7447429019927213E9, 0.0, 2025-04-15 13:48:21.992
50.0, -21093.050669795357, 5944.468789633369, 26715.76609799458, -13423.429539612478, -50790.02538800542, 39008.24207165743, -23610.728813496688, 62700.5994559049, -5890.221105840338, -20187.335632721857, -9846.166950007315, 8815.393902706373, 4646.123009457947, 4709.691370688841, 13288.804982758164, -187500.02235174447, -0.112, 0.9500000000000001, 0.228, 192.0, 0.0, 0.0, 0.0, 0.0, 0.0, 0.0, 0.0, 0.0, 0.0, 1.7447429020007534E9, 0.0, 2025-04-15 13:48:22.000
52.0, -21085.205207491545, 5900.189983867405, 26711.966301437176, -13411.449004584432, -50927.24274721656, 38972.009893895374, -23607.443107061757, 62611.371292039315, -5883.090899359096, -20172.628184870267, -9862.774296137608, 8814.365722461429, 4631.326154628534, 4699.007236839204, 13245.777874681697, -187500.02235174447, -0.112, 0.9500000000000001, 0.228, 192.0, 0.0, 0.0, 0.0, 0.0, 0.0, 0.0, 0.0, 0.0, 0.0, 1.7447429020087953E9, 0.0, 2025-04-15 13:48:22.008
54.0, -21104.74063214548, 5945.452266389402, 26715.162600894288, -13421.03790295576, -50732.04496288836, 39021.34019390824, -23597.831856945977, 62730.059055096994, -5891.673969229933, -20185.122810020785, -9852.76071462163, 8819.03723705259, 4650.258082182179, 4719.503786504721, 13283.798192000175, -187500.02235174447, -0.112, 0.9500000000000001, 0.228, 192.0, 0.0, 0.0, 0.0, 0.0, 0.0, 0.0, 0.0, 0.0, 0.0, 1.744742902015849E9, 0.0, 2025-04-15 13:48:22.015
56.0, -21099.1303442872, 5890.534030262713, 26695.22484484015, -13419.965019221905, -50867.18360986515, 38983.699856245505, -23616.227342632694, 62645.16712965574, -5891.696320974389, -20178.104362261816, -9876.565322466531, 8804.374492689907, 4629.381552860922, 4703.276420030167, 13251.678735217898, -187500.02235174447, -0.11, 0.9530000000000001, 0.229, 192.0, 126.0, 80.0, 14.5, 112.0, 3.5, 24.0, 0.0, 0.0, 0.0, 1.7447429020248735E9, 0.0, 2025-04-15 13:48:22.024
58.0, -21097.900998342157, 5935.528091851246, 26712.078060159452, -13414.51119357481, -50713.09068359026, 39028.783324811855, -23582.766781183098, 62738.306848801, -5894.892620431498, -20184.340498964848, -9864.718897905219, 8809.69420787027, 4644.290166412612, 4715.189899824846, 13273.270520361724, -187500.02235174447, -0.11, 0.9530000000000001, 0.229, 192.0, 0.0, 0.0, 0.0, 0.0, 0.0, 0.0, 0.0, 0.0, 0.0, 1.7447429020329096E9, 0.0, 2025-04-15 13:48:22.032
60.0, -21097.677480897604, 5891.830431441121, 26700.410449553783, -13408.02918768277, -50839.64626069621, 38987.544356291815, -23599.508237780123, 62658.17584492873, -5893.4844605308135, -20180.451295429622, -9867.803438640052, 8802.116966499922, 4631.0579336950705, 4707.858527643505, 13260.820598700118, -187500.02235174447, -0.11, 0.9530000000000001, 0.229, 192.0, 0.0, 0.0, 0.0, 0.0, 0.0, 0.0, 0.0, 0.0, 0.0, 1.7447429020399547E9, 0.0, 2025-04-15 13:48:22.039
62.0, -21113.167239805134, 5926.229766157838, 26709.66407175828, -13411.069024928693, -50686.20153501052, 39023.7094788205, -23594.926130166787, 62748.454540783714, -5896.077262887628, -20188.766144366997, -9862.461371715233, 8814.455129439251, 4637.606994820475, 4710.317219533589, 13270.141276137982, -187500.02235174447, -0.11, 0.9530000000000001, 0.229, 192.0, 0.0, 0.0, 0.0, 0.0, 0.0, 0.0, 0.0, 0.0, 0.0, 1.7447429020479877E9, 0.0, 2025-04-15 13:48:22.047
64.0, -21103.533637944896, 5884.834335426609, 26692.363821549872, -13398.932027689461, -50792.707597340064, 38982.55991727828, -23625.324502626005, 62678.15830447177, -5900.480556545324, -20187.42503969968, -9869.211598540736, 8804.329789200996, 4627.638116793409, 4706.293905531634, 13266.475590047312, -187500.02235174447, -0.11, 0.9530000000000001, 0.229, 192.0, 0.0, 0.0, 0.0, 0.0, 0.0, 0.0, 0.0, 0.0, 0.0, 1.7447429020570416E9, 0.0, 2025-04-15 13:48:22.057
66.0, -21096.626948908204, 5933.628193572545, 26721.063461430487, -13383.241103081835, -50702.942991607546, 39016.15458919461, -23579.078743347975, 62727.13097657335, -5888.768242450744, -20176.427981427667, -9862.550778693054, 8816.198565506766, 4641.116218699958, 4715.167548080391, 13257.423133542912, -187500.02235174447, -0.10600000000000001, 0.9545000000000001, 0.2265, 192.0, 126.0, 104.0, 14.5, 112.0, 3.5, 0.0, 0.0, 0.0, 0.0, 1.7447429020651565E9, 0.0, 2025-04-15 13:48:22.065
68.0, -21098.16921927562, 5900.145280378495, 26698.197626852707, -13383.285806570746, -50775.161477942645, 38988.39372258112, -23600.11173488042, 62683.567426629954, -5889.327036062126, -20178.6631558732, -9859.488589702678, 8818.344332974475, 4642.904358256383, 4719.4590830158095, 13291.353081626068, -187500.02235174447, -0.10600000000000001, 0.9545000000000001, 0.2265, 192.0, 0.0, 0.0, 0.0, 0.0, 0.0, 0.0, 0.0, 0.0, 0.0, 1.7447429020721805E9, 0.0, 2025-04-15 13:48:22.072
70.0, -21093.65416689565, 5927.12383593605, 26721.9575312087, -13377.004966378805, -50703.88176487467, 39018.63563282915, -23571.434446744257, 62727.86858414037, -5893.1938878528945, -20185.346327465337, -9865.23298802769, 8814.566888161527, 4638.29989889859, 4708.685542188352, 13273.00229942826, -187500.02235174447, -0.10600000000000001, 0.9545000000000001, 0.2265, 192.0, 0.0, 0.0, 0.0, 0.0, 0.0, 0.0, 0.0, 0.0, 0.0, 1.7447429020801551E9, 0.0, 2025-04-15 13:48:22.080
72.0, -21097.99040531998, 5904.302704847182, 26699.33756581993, -13384.761021704797, -50748.249977618456, 38993.24405112792, -23607.554865784034, 62699.5489239155, -5887.427137783425, -20184.74283036504, -9848.558586664032, 8822.32294348752, 4641.138570444414, 4718.475606259776, 13303.668892820942, -187500.02235174447, -0.10600000000000001, 0.9545000000000001, 0.2265, 192.0, 0.0, 0.0, 0.0, 0.0, 0.0, 0.0, 0.0, 0.0, 0.0, 1.744742902089212E9, 0.0, 2025-04-15 13:48:22.089
74.0, -21106.394661235176, 5917.691399775911, 26708.591188024428, -13385.699794971919, -50699.590229939255, 39018.47917061796, -23581.917414893796, 62732.98713362064, -5890.288161073704, -20192.677699646676, -9866.752906650652, 8811.325885215509, 4634.500102341188, 4701.041245584637, 13269.560130782143, -187500.02235174447, -0.10600000000000001, 0.9545000000000001, 0.2265, 192.0, 0.0, 0.0, 0.0, 0.0, 0.0, 0.0, 0.0, 0.0, 0.0, 1.744742902096242E9, 0.0, 2025-04-15 13:48:22.096
76.0, -21108.51807695843, 5901.419329812447, 26680.09271384391, -13391.399489808022, -50686.06742454379, 39007.30329839031, -23610.840572218964, 62742.35251454741, -5909.6894752609105, -20202.8700951183, -9863.511903704632, 8808.286047969586, 4631.326154628534, 4711.077178845069, 13304.384148643512, -187500.02235174447, -0.101, 0.95425, 0.22825, 192.0, 126.5, 0.0, 14.5, 104.0, 3.5, 24.0, 0.0, 0.0, 0.0, 1.744742902104286E9, 0.0, 2025-04-15 13:48:22.104
78.0, -21107.244027524477, 5907.543707793201, 26707.115972890377, -13380.134210602548, -50703.27826777438, 39013.94176649353, -23571.99324035564, 62721.27481952606, -5893.104480875073, -20186.19569375464, -9879.091069589982, 8812.17525150481, 4627.079323182025, 4701.935315362849, 13255.567938753122, -187500.02235174447, -0.101, 0.95425, 0.22825, 192.0, 0.0, 0.0, 0.0, 0.0, 0.0, 0.0, 0.0, 0.0, 0.0, 1.744742902112329E9, 0.0, 2025-04-15 13:48:22.112
80.0, -21109.99329209248, 5907.320190348648, 26690.799199438003, -13389.968978162882, -50663.53686613284, 39006.968022223475, -23606.549037283545, 62743.335991303444, -5904.325056591637, -20200.098478805838, -9860.829694369995, 8813.292838727575, 4638.657526809875, 4719.4590830158095, 13306.462860877857, -187500.02235174447, -0.101, 0.95425, 0.22825, 192.0, 0.0, 0.0, 0.0, 0.0, 0.0, 0.0, 0.0, 0.0, 0.0, 1.7447429021203432E9, 0.0, 2025-04-15 13:48:22.120
82.0, -21114.620103194728, 5898.982989666819, 26699.270510586564, -13398.373234078079, -50691.02951181287, 39003.43644659954, -23584.420810272793, 62726.41572075078, -5902.827489713131, -20188.47557168908, -9884.500191748166, 8808.576620647505, 4623.681858024819, 4698.694312416829, 13246.515482248722, -187500.02235174447, -0.101, 0.95425, 0.22825, 192.0, 0.0, 0.0, 0.0, 0.0, 0.0, 0.0, 0.0, 0.0, 0.0, 1.7447429021284084E9, 0.0, 2025-04-15 13:48:22.128
84.0, -21108.048690324867, 5905.330885092126, 26681.56792897796, -13408.27505687178, -50609.17742361753, 39000.754237264904, -23609.58887452947, 62773.89082597385, -5916.909088719975, -20207.295740520447, -9875.71595617723, 8806.609667135437, 4635.327116886034, 4709.64666719993, 13296.87396250653, -187500.02235174447, -0.101, 0.95425, 0.22825, 192.0, 0.0, 0.0, 0.0, 0.0, 0.0, 0.0, 0.0, 0.0, 0.0, 1.744742902136456E9, 0.0, 2025-04-15 13:48:22.136
86.0, -21095.621120407715, 5897.574829766135, 26694.263719828574, -13397.657978255509, -50684.636912898655, 38990.31597260427, -23583.414981772305, 62720.8054328925, -5908.50483280478, -20182.977042553073, -9897.19598259878, 8798.227762964698, 4626.4758260817325, 4694.246315270223, 13236.725418177299, -187500.02235174447, -0.10250000000000001, 0.955125, 0.22912500000000002, 192.0, 126.0, 96.0, 14.5, 112.0, 3.5, 24.0, 0.0, 0.0, 0.0, 1.744742902144493E9, 0.0, 2025-04-15 13:48:22.144
88.0, -21093.050669795357, 5920.038332943718, 26686.641774969314, -13407.470394071388, -50550.05705953325, 39011.61718507018, -23600.067031391507, 62804.8256403, -5910.270620616749, -20188.02853679997, -9871.312662519535, 8818.165519018832, 4650.503951371187, 4725.2705365741895, 13297.008072973262, -187500.02235174447, -0.10250000000000001, 0.955125, 0.22912500000000002, 192.0, 0.0, 0.0, 0.0, 0.0, 0.0, 0.0, 0.0, 0.0, 0.0, 1.7447429021515243E9, 0.0, 2025-04-15 13:48:22.151
90.0, -21071.30242244034, 5896.099614632084, 26702.220940854662, -13391.824172952674, -50656.54077011833, 38997.535586063335, -23571.836778144454, 62743.492453514635, -5902.514565290758, -20171.37648718077, -9887.785898183096, 8812.666989882826, 4634.321288385545, 4696.436786226844, 13243.363886280524, -187500.02235174447, -0.10250000000000001, 0.955125, 0.22912500000000002, 192.0, 0.0, 0.0, 0.0, 0.0, 0.0, 0.0, 0.0, 0.0, 0.0, 1.7447429021605732E9, 0.0, 2025-04-15 13:48:22.160
92.0, -21064.105160725732, 5948.715621079877, 26702.511513532583, -13386.303292072213, -50515.05422771624, 39035.086516748255, -23575.10013283493, 62836.475710448714, -5899.586486767112, -20172.85170231482, -9854.347688477956, 8836.002211094166, 4662.663300354874, 4735.373525067988, 13308.25100043428, -187500.02235174447, -0.10250000000000001, 0.955125, 0.22912500000000002, 192.0, 0.0, 0.0, 0.0, 0.0, 0.0, 0.0, 0.0, 0.0, 0.0, 1.7447429021686025E9, 0.0, 2025-04-15 13:48:22.168
94.0, -21056.68438156657, 5901.6428472570005, 26696.27537682955, -13388.113783373092, -50633.317307629266, 39004.57638556676, -23572.82025490049, 62770.314546861, -5895.518469276246, -20168.403705168213, -9880.029842857104, 8823.686399899292, 4640.356259388478, 4714.787568424651, 13263.458104545845, -187500.02235174447, -0.10250000000000001, 0.955125, 0.22912500000000002, 192.0, 0.0, 0.0, 0.0, 0.0, 0.0, 0.0, 0.0, 0.0, 0.0, 1.744742902175648E9, 0.0, 2025-04-15 13:48:22.175
96.0, -21055.767960043904, 5940.3337169091365, 26694.57664425095, -13392.22650435287, -50468.31673006019, 39040.33917669525, -23564.684219918756, 62880.374536558935, -5892.83625994161, -20176.5620918944, -9854.48179894469, 8829.631963924405, 4662.082154999037, 4737.1840163688685, 13314.911820281963, -187500.02235174447, -0.10125, 0.9575625, 0.2305625, 192.0, 126.0, 112.0, 15.0, 0.0, 3.5, 32.0, 0.0, 0.0, 0.0, 1.7447429021836903E9, 0.0, 2025-04-15 13:48:22.183
98.0, -21045.73202678347, 5895.987855909808, 26684.205434823685, -13386.37034730558, -50601.019036891346, 39002.296507632316, -23566.7629321531, 62806.18909671177, -5890.019940140241, -20177.679679117166, -9874.732479421196, 8821.473577198218, 4637.562291331565, 4713.960553879804, 13274.902197706962, -187500.02235174447, -0.10125, 0.9575625, 0.2305625, 192.0, 0.0, 0.0, 0.0, 0.0, 0.0, 0.0, 0.0, 0.0, 0.0, 1.7447429021927454E9, 0.0, 2025-04-15 13:48:22.192
100.0, -21049.710637296517, 5939.6855163199325, 26689.256929070587, -13391.958283419406, -50434.0515058102, 39037.92518829408, -23565.779455397067, 62917.65724631039, -5886.421309282936, -20170.281251702458, -9850.838464598473, 8840.673725685327, 4664.384384677933, 4747.309356607122, 13310.329712668625, -187500.02235174447, -0.10125, 0.9575625, 0.2305625, 192.0, 0.0, 0.0, 0.0, 0.0, 0.0, 0.0, 0.0, 0.0, 0.0, 1.74474290220078E9, 0.0, 2025-04-15 13:48:22.200
102.0, -21035.606686545216, 5894.445585542391, 26680.360934777374, -13384.962187404893, -50589.37377803013, 38998.4073040971, -23573.088475833953, 62830.731312123695, -5893.216239597349, -20173.45519941511, -9876.47591548871, 8823.641696410383, 4639.3951343768995, 4721.3142778056, 13266.81086621414, -187500.02235174447, -0.10125, 0.9575625, 0.2305625, 192.0, 0.0, 0.0, 0.0, 0.0, 0.0, 0.0, 0.0, 0.0, 0.0, 1.7447429022078E9, 0.0, 2025-04-15 13:48:22.207
104.0, -21051.185852430564, 5951.4201821589695, 26689.167522092765, -13390.393661307533, -50412.01268577727, 39044.183676741566, -23563.633687929356, 62957.979793307764, -5892.053948885674, -20173.52225464848, -9852.313679732524, 8841.724257674725, 4665.323157945056, 4741.855530960028, 13308.362759156556, -187500.02235174447, -0.10125, 0.9575625, 0.2305625, 192.0, 0.0, 0.0, 0.0, 0.0, 0.0, 0.0, 0.0, 0.0, 0.0, 1.7447429022158396E9, 0.0, 2025-04-15 13:48:22.215
106.0, -21055.902070510634, 5889.036463384207, 26669.56504220546, -13398.149716633525, -50568.25137951987, 38992.998181938914, -23591.416906287304, 62862.7390101837, -5899.027693155729, -20169.253071457515, -9872.05027008656, 8834.83992038249, 4645.184236190825, 4724.868205173994, 13279.752526253764, -187500.02235174447, -0.10162500000000001, 0.95678125, 0.23428125, 192.0, 126.0, 104.0, 14.5, 112.0, 3.5, 56.0, 0.0, 0.0, 0.0, 1.7447429022249458E9, 0.0, 2025-04-15 13:48:22.224
108.0, -21088.289748226376, 5907.409597326469, 26685.457132513184, -13401.636588768553, -50444.53447395974, 39034.90770279261, -23566.897042619832, 62938.71258958729, -5907.051969415184, -20169.051905757417, -9872.989043353682, 8831.17423429182, 4657.634157852431, 4735.12765587898, 13288.447354846878, -187500.02235174447, -0.10162500000000001, 0.95678125, 0.23428125, 192.0, 0.0, 0.0, 0.0, 0.0, 0.0, 0.0, 0.0, 0.0, 0.0, 1.7447429022319138E9, 0.0, 2025-04-15 13:48:22.231
110.0, -21135.116652860244, 5820.058979995129, 26662.18896653521, -13407.55980104921, -50576.119193568135, 39002.922356477065, -23583.370278283393, 62862.94017588379, -5932.488254605324, -20177.79143783944, -9892.122136607426, 8813.60576314995, 4645.564215846564, 4726.723399963785, 13284.267578633737, -187500.02235174447, -0.10162500000000001, 0.95678125, 0.23428125, 192.0, 0.0, 0.0, 0.0, 0.0, 0.0, 0.0, 0.0, 0.0, 0.0, 1.744742902239966E9, 0.0, 2025-04-15 13:48:22.239
112.0, -21195.712232078582, 5794.5779913160795, 26677.969298120654, -13404.74348124784, -50475.46928828589, 39043.22255172999, -23554.648286658325, 62922.12759520145, -5971.872028335575, -20199.98672008356, -9911.81402347255, 8793.936228029279, 4641.160922188869, 4727.1480831084355, 13286.4356978459, -187500.02235174447, -0.10162500000000001, 0.95678125, 0.23428125, 192.0, 0.0, 0.0, 0.0, 0.0, 0.0, 0.0, 0.0, 0.0, 0.0, 1.744742902248099E9, 0.0, 2025-04-15 13:48:22.248
114.0, -21257.090122352856, 5680.964074249754, 26649.470823940137, -13407.64920802703, -50618.073417910746, 39005.11282743369, -23579.056391603517, 62828.786710356086, -5998.045921092739, -20197.684490404667, -9920.598259043487, 8789.354120415941, 4639.417486121355, 4737.586347769064, 13299.243247418792, -187500.02235174447, -0.10162500000000001, 0.95678125, 0.23428125, 192.0, 0.0, 0.0, 0.0, 0.0, 0.0, 0.0, 0.0, 0.0, 0.0, 1.7447429022560465E9, 0.0, 2025-04-15 13:48:22.256
116.0, -21338.02578902552, 5641.714410986235, 26653.494137942092, -13415.94170521995, -50546.61489088713, 39041.74733659594, -23550.60262091191, 62875.25598707867, -6033.741656987865, -20220.930304638186, -9952.673012336852, 8757.68169852277, 4636.936442486816, 4727.975097653281, 13279.238436131292, -187500.02235174447, -0.10162500000000001, 0.95678125, 0.23428125, 192.0, 0.0, 0.0, 0.0, 0.0, 0.0, 0.0, 0.0, 0.0, 0.0, 1.7447429022641568E9, 0.0, 2025-04-15 13:48:22.264
118.0, -21403.67286249076, 5539.522235336571, 26615.987910746087, -13430.090359460159, -50614.519490542356, 39011.43837111454, -23592.266272576606, 62841.97423958472, -6085.307131446259, -20236.82239494591, -9972.074326524058, 8738.25803259111, 4622.117235912948, 4738.636879758463, 13298.997378229784, -187500.02235174447, -0.106, 0.9520000000000001, 0.232, 192.0, 126.0, 88.0, 14.5, 96.0, 3.5, 32.0, 0.0, 0.0, 0.0, 1.7447429022721872E9, 0.0, 2025-04-15 13:48:22.272
120.0, -21435.97113322868, 5512.9013076903, 26637.199716234176, -13428.078702459181, -50578.26496103585, 39033.879522547664, -23558.246917515626, 62867.18700733031, -6109.044684057794, -20260.80581674645, -10008.574725219576, 8705.356264752896, 4609.734369484708, 4714.899327146927, 13258.071334132115, -187500.02235174447, -0.106, 0.9520000000000001, 0.232, 192.0, 0.0, 0.0, 0.0, 0.0, 0.0, 0.0, 0.0, 0.0, 0.0, 1.7447429022801795E9, 0.0, 2025-04-15 13:48:22.280
122.0, -21447.079950222964, 5480.804202652479, 26607.717765297624, -13439.165167709014, -50621.426179579044, 39013.00299322641, -23589.60641498642, 62852.74778041217, -6133.765713425364, -20278.35193614387, -10010.765196176195, 8694.962703581179, 4609.644962506886, 4725.471702274287, 13298.05860496266, -187500.02235174447, -0.106, 0.9520000000000001, 0.232, 192.0, 0.0, 0.0, 0.0, 0.0, 0.0, 0.0, 0.0, 0.0, 0.0, 1.7447429022872183E9, 0.0, 2025-04-15 13:48:22.287
124.0, -21438.67569430777, 5492.762385936068, 26629.443660908182, -13436.974696752393, -50617.60403127719, 39024.044754987335, -23561.33145825046, 62868.773981186634, -6118.857099873674, -20279.514226855546, -10024.511519016209, 8684.01034879808, 4605.062854893548, 4701.5553357071085, 13260.641784744477, -187500.02235174447, -0.106, 0.9520000000000001, 0.232, 192.0, 0.0, 0.0, 0.0, 0.0, 0.0, 0.0, 0.0, 0.0, 0.0, 1.7447429022962592E9, 0.0, 2025-04-15 13:48:22.296
126.0, -21427.991560458133, 5495.9810371376325, 26607.136619941786, -13453.537339393777, -50608.149243372594, 39007.41505711259, -23598.90474067983, 62898.81472573456, -6117.046608572795, -20300.569570132444, -10007.323027530078, 8683.853886586892, 4609.57790727352, 4708.618486954986, 13301.567828842144, -187500.02235174447, -0.106, 0.9520000000000001, 0.232, 192.0, 0.0, 0.0, 0.0, 0.0, 0.0, 0.0, 0.0, 0.0, 0.0, 1.7447429023043573E9, 0.0, 2025-04-15 13:48:22.304
128.0, -21380.829379657436, 5527.139368908331, 26640.41836743574, -13436.237089185368, -50676.29971221682, 39006.16335942309, -23565.935917608254, 62864.10246659547, -6091.051529771273, -20277.189645432194, -10013.000370621727, 8696.169697781766, 4604.034674648604, 4687.630198911453, 13244.5261769922, -187500.02235174447, -0.1, 0.9460000000000001, 0.232, 192.0, 126.0, 112.0, 14.5, 72.0, 3.5, 32.0, 0.0, 0.0, 0.0, 1.7447429023113275E9, 0.0, 2025-04-15 13:48:22.311
130.0, -21351.21331825415, 5569.093593250942, 26630.248323708576, -13436.773531052297, -50666.33083418976, 39009.04673445782, -23587.035964374063, 62893.20443787628, -6072.8125062957415, -20267.846616249873, -9971.761402101685, 8722.0083143721, 4631.2367476507125, 4721.470740016787, 13307.401634144979, -187500.02235174447, -0.1, 0.9460000000000001, 0.232, 192.0, 0.0, 0.0, 0.0, 0.0, 0.0, 0.0, 0.0, 0.0, 0.0, 1.7447429023194072E9, 0.0, 2025-04-15 13:48:22.319
132.0, -21320.949056261667, 5589.523087683093, 26646.609800649858, -13430.000952482338, -50759.492905079474, 39003.61526055518, -23569.28867927655, 62852.92659436782, -6050.281947884792, -20246.992438673075, -9984.54659993012, 8725.986924885145, 4612.6847997528075, 4702.538812463143, 13249.28709856118, -187500.02235174447, -0.1, 0.9460000000000001, 0.232, 192.0, 0.0, 0.0, 0.0, 0.0, 0.0, 0.0, 0.0, 0.0, 0.0, 1.744742902328439E9, 0.0, 2025-04-15 13:48:22.328
134.0, -21316.32224515942, 5620.815529920523, 26621.285274181995, -13452.151531237547, -50685.59803791023, 39002.855301243704, -23611.756993741634, 62924.0498452246, -6057.881540999597, -20264.426799348214, -9960.764343829673, 8727.216270830188, 4618.943288200294, 4717.179205081368, 13303.624189332031, -187500.02235174447, -0.1, 0.9460000000000001, 0.232, 192.0, 0.0, 0.0, 0.0, 0.0, 0.0, 0.0, 0.0, 0.0, 0.0, 1.7447429023365147E9, 0.0, 2025-04-15 13:48:22.336
136.0, -21282.951090687646, 5622.469559010215, 26629.55541963046, -13442.070894488204, -50828.425684979644, 38978.22367885395, -23594.680260977777, 62846.86927162043, -6036.312107600225, -20245.405464816748, -9987.87700985396, 8720.06371260449, 4593.931686154805, 4684.500954687709, 13227.829423884086, -187500.02235174447, -0.1, 0.9460000000000001, 0.232, 192.0, 0.0, 0.0, 0.0, 0.0, 0.0, 0.0, 0.0, 0.0, 0.0, 1.7447429023434956E9, 0.0, 2025-04-15 13:48:22.343
138.0, -21253.983229873567, 5664.513190330647, 26639.658408124258, -13436.840586285662, -50791.41119616166, 38996.641516285126, -23599.038851146564, 62879.324004569535, -6018.609525991622, -20239.750473469554, -9945.073419222048, 8745.58940477245, 4622.608974290964, 4716.642763214441, 13288.447354846878, -187500.02235174447, -0.108, 0.9440000000000001, 0.228, 192.0, 126.0, 80.0, 14.5, 64.0, 3.5, 16.0, 0.0, 0.0, 0.0, 1.7447429023516085E9, 0.0, 2025-04-15 13:48:22.351
140.0, -21238.337008754854, 5656.265396626639, 26641.267733725042, -13437.242917685857, -50966.26889303552, 38976.212021852974, -23589.226435330682, 62789.2688261591, -6003.119767084095, -20223.09842385035, -9958.752686828695, 8748.673945507282, 4610.002590418171, 4693.732225147752, 13237.395970510957, -187500.02235174447, -0.108, 0.9440000000000001, 0.228, 192.0, 0.0, 0.0, 0.0, 0.0, 0.0, 0.0, 0.0, 0.0, 0.0, 1.7447429023605995E9, 0.0, 2025-04-15 13:48:22.360
142.0, -21215.62763638826, 5716.257478744684, 26652.84593735289, -13431.319705405202, -50897.93961023565, 39005.33634487824, -23582.789132927555, 62843.69532390778, -5996.23542979186, -20227.233496574583, -9931.103578937482, 8764.767201515104, 4630.432084850322, 4717.067446359092, 13295.868134006041, -187500.02235174447, -0.108, 0.9440000000000001, 0.228, 192.0, 0.0, 0.0, 0.0, 0.0, 0.0, 0.0, 0.0, 0.0, 0.0, 1.744742902367657E9, 0.0, 2025-04-15 13:48:22.367
144.0, -21202.931845537645, 5692.3858156664155, 26650.61076290736, -13431.319705405202, -51095.30551377601, 38974.58034450774, -23582.587967227457, 62737.546889489524, -5973.213133002893, -20209.150935310237, -9938.144378440902, 8764.119000925899, 4624.285355125112, 4697.733187405252, 13243.497996747255, -187500.02235174447, -0.108, 0.9440000000000001, 0.228, 192.0, 0.0, 0.0, 0.0, 0.0, 0.0, 0.0, 0.0, 0.0, 0.0, 1.744742902377689E9, 0.0, 2025-04-15 13:48:22.377
146.0, -21205.546999638915, 5752.1990838288175, 26645.492213427093, -13438.56167060872, -50979.25525656406, 39008.376182124164, -23591.95334815423, 62825.076320776505, -5975.537714426246, -20226.942923896662, -9915.613820029954, 8759.983928201667, 4635.81885526405, 4713.446463757332, 13293.856477005063, -187500.02235174447, -0.108, 0.9440000000000001, 0.228, 192.0, 0.0, 0.0, 0.0, 0.0, 0.0, 0.0, 0.0, 0.0, 0.0, 1.7447429023837624E9, 0.0, 2025-04-15 13:48:22.383
148.0, -21178.76960978146, 5719.118502034963, 26647.14624251679, -13425.195327424446, -51193.3849684459, 38968.76889094936, -23588.17590334128, 62701.38176696083, -5960.383231685547, -20209.016824843507, -9932.243517904702, 8760.632128790872, 4619.971468445238, 4697.867297871983, 13248.23656657178, -187500.02235174447, -0.11, 0.9500000000000001, 0.224, 192.0, 126.0, 72.0, 14.5, 88.0, 3.5, 0.0, 0.0, 0.0, 0.0, 1.7447429023927715E9, 0.0, 2025-04-15 13:48:22.392
150.0, -21172.734638778526, 5787.023101690185, 26657.204527521673, -13431.99025773886, -51082.565019436486, 39006.34217337873, -23576.754161924622, 62778.09295393145, -5950.213187958382, -20205.932284108672, -9902.426290801322, 8791.097556483455, 4644.424276879344, 4722.4542167728205, 13290.034328703205, -187500.02235174447, -0.11, 0.9500000000000001, 0.224, 192.0, 0.0, 0.0, 0.0, 0.0, 0.0, 0.0, 0.0, 0.0, 0.0, 1.7447429023998008E9, 0.0, 2025-04-15 13:48:22.399
152.0, -21161.983449695523, 5744.3312697805495, 26638.607876134858, -13438.539318864265, -51256.50629478769, 38962.599809479696, -23600.91639768081, 62678.94061552771, -5953.1859699709385, -20215.63294120228, -9924.86744223445, 8770.086916695467, 4614.696456753785, 4694.805108881606, 13250.650554972954, -187500.02235174447, -0.11, 0.9500000000000001, 0.224, 192.0, 0.0, 0.0, 0.0, 0.0, 0.0, 0.0, 0.0, 0.0, 0.0, 1.7447429024078481E9, 0.0, 2025-04-15 13:48:22.407
154.0, -21149.55587977837, 5804.703331554334, 26666.86048112637, -13428.548089092743, -51150.715488280715, 39011.86305425919, -23579.279909048073, 62743.60421223691, -5932.93528949443, -20200.545513694946, -9895.452546531265, 8790.605818105438, 4639.305727399079, 4711.032475356159, 13274.097534906572, -187500.02235174447, -0.11, 0.9500000000000001, 0.224, 192.0, 0.0, 0.0, 0.0, 0.0, 0.0, 0.0, 0.0, 0.0, 0.0, 1.7447429024168987E9, 0.0, 2025-04-15 13:48:22.416
156.0, -21131.674484214127, 5765.654833990912, 26657.316286243953, -13427.430501869978, -51341.30881325112, 38970.51232701687, -23596.62486274539, 62628.73859748109, -5931.549481338201, -20192.32007173539, -9899.76643321114, 8788.996492504655, 4629.538015072109, 4702.248239785224, 13261.826427200607, -187500.02235174447, -0.11, 0.9500000000000001, 0.224, 192.0, 0.0, 0.0, 0.0, 0.0, 0.0, 0.0, 0.0, 0.0, 0.0, 1.7447429024229524E9, 0.0, 2025-04-15 13:48:22.422
158.0, -21125.885382400204, 5826.1610062314285, 26679.019830110054, -13420.724978533386, -51250.22545459574, 39015.57344383877, -23564.75127515212, 62695.57031340246, -5922.318210878159, -20193.66117640271, -9887.67413946082, 8797.847783308958, 4646.905320513883, 4708.663190443896, 13272.644671516977, -187500.02235174447, -0.11, 0.9540000000000001, 0.232, 192.0, 126.0, 72.0, 14.5, 104.0, 3.5, 32.0, 0.0, 0.0, 0.0, 1.744742902431946E9, 0.0, 2025-04-15 13:48:22.431
160.0, -21120.02922535291, 5788.05128193513, 26660.33377174542, -13423.809519268218, -51417.192985676884, 38980.39179806612, -23596.8707319344, 62609.829021671896, -5916.864385231064, -20185.79336235444, -9889.462279017243, 8802.69811185576, 4644.446628623799, 4710.227812555768, 13272.354098839058, -187500.02235174447, -0.11, 0.9540000000000001, 0.232, 192.0, 0.0, 0.0, 0.0, 0.0, 0.0, 0.0, 0.0, 0.0, 0.0, 1.7447429024420853E9, 0.0, 2025-04-15 13:48:22.442
162.0, -21117.056443340356, 5828.284421954682, 26679.8468446549, -13423.138966934559, -51339.02893531668, 39019.842627029735, -23569.95923161021, 62682.42748766274, -5906.984914181819, -20191.671871146187, -9890.512811006643, 8800.194716476764, 4653.58849210602, 4709.2443357997345, 13270.208331371348, -187500.02235174447, -0.11, 0.9540000000000001, 0.232, 192.0, 0.0, 0.0, 0.0, 0.0, 0.0, 0.0, 0.0, 0.0, 0.0, 1.7447429024480548E9, 0.0, 2025-04-15 13:48:22.448
164.0, -21110.194457792575, 5794.890915738454, 26659.75262638958, -13426.4693768584, -51457.11320127406, 38981.531737033336, -23603.285682593072, 62635.265306862035, -5919.747760265799, -20199.629092172276, -9892.882095918905, 8788.50475412664, 4640.512721599665, 4711.45715850081, 13280.57954079861, -187500.02235174447, -0.11, 0.9540000000000001, 0.232, 192.0, 0.0, 0.0, 0.0, 0.0, 0.0, 0.0, 0.0, 0.0, 0.0, 1.7447429024550838E9, 0.0, 2025-04-15 13:48:22.455
166.0, -21109.099222314268, 5840.197901749361, 26688.22874882564, -13413.70653077442, -51415.047218209176, 39013.49473160443, -23564.885385618854, 62682.472191151646, -5904.414463569458, -20183.647594886734, -9890.043424373082, 8802.943981044767, 4649.498122870698, 4713.915850390894, 13259.77006671072, -187500.02235174447, -0.11, 0.9540000000000001, 0.232, 192.0, 0.0, 0.0, 0.0, 0.0, 0.0, 0.0, 0.0, 0.0, 0.0, 1.7447429024641695E9, 0.0, 2025-04-15 13:48:22.464
168.0, -21100.51615244343, 5822.785892818677, 26673.007210851578, -13409.191478394447, -51509.93037342196, 38986.560879535784, -23593.987356899663, 62635.24295511758, -5906.5155275482575, -20188.453219944622, -9880.923912635317, 8807.771957847113, 4651.509779871676, 4723.325934806578, 13290.973101970329, -187500.02235174447, -0.11, 0.9580000000000001, 0.23, 192.0, 126.0, 72.0, 14.5, 120.0, 3.5, 24.0, 0.0, 0.0, 0.0, 1.7447429024721959E9, 0.0, 2025-04-15 13:48:22.472
170.0, -21095.419954707617, 5858.25811126925, 26695.828341940447, -13402.575362035675, -51499.4027017835, 39012.33244089275, -23558.336324493448, 62644.40717034426, -5881.503925502769, -20164.715667333086, -9875.693604432774, 8822.144129531876, 4659.332890431034, 4724.644687729441, 13265.492113291279, -187500.02235174447, -0.11, 0.9580000000000001, 0.23, 192.0, 0.0, 0.0, 0.0, 0.0, 0.0, 0.0, 0.0, 0.0, 0.0, 1.7447429024791992E9, 0.0, 2025-04-15 13:48:22.479
172.0, -21109.210981036544, 5830.474892911303, 26657.025713566032, -13424.3683128796, -51507.046998387224, 38994.13812090613, -23602.81629595951, 62642.261402876546, -5906.873155459542, -20194.823467114387, -9871.044441586071, 8803.011036278134, 4654.527265373143, 4724.354115051522, 13304.16063119896, -187500.02235174447, -0.11, 0.9580000000000001, 0.23, 192.0, 0.0, 0.0, 0.0, 0.0, 0.0, 0.0, 0.0, 0.0, 0.0, 1.7447429024882553E9, 0.0, 2025-04-15 13:48:22.488
174.0, -21091.150771516655, 5849.004489064752, 26685.881815657835, -13408.185649893958, -51535.165492912, 39013.762952537894, -23563.745446651632, 62607.97382688211, -5894.199716353383, -20179.311356462404, -9887.942360394283, 8805.670893868315, 4646.7265065582405, 4710.674847444874, 13252.505749762744, -187500.02235174447, -0.11, 0.9580000000000001, 0.23, 192.0, 0.0, 0.0, 0.0, 0.0, 0.0, 0.0, 0.0, 0.0, 0.0, 1.744742902496271E9, 0.0, 2025-04-15 13:48:22.496
176.0, -21084.959338302535, 5856.268806012727, 26670.392056750305, -13415.360559864112, -51522.1120741501, 39015.34992639422, -23583.347926538936, 62609.136117593785, -5890.399919795981, -20180.719516363086, -9856.962842579227, 8816.802062607057, 4664.585550378031, 4736.781684968672, 13307.02165448924, -187500.02235174447, -0.11, 0.9580000000000001, 0.23, 192.0, 0.0, 0.0, 0.0, 0.0, 0.0, 0.0, 0.0, 0.0, 0.0, 1.7447429025033388E9, 0.0, 2025-04-15 13:48:22.503
178.0, -21087.73095461499, 5856.134695545995, 26688.85459767039, -13414.242972641347, -51558.90304552353, 39021.89898751962, -23554.916507591788, 62575.31792823291, -5882.6885679588995, -20173.790475581944, -9874.508961976644, 8814.298667228064, 4650.503951371187, 4712.418283512388, 13256.305546320147, -187500.02235174447, -0.108, 0.9480000000000001, 0.23600000000000002, 192.0, 126.0, 80.0, 14.5, 80.0, 3.5, 48.0, 0.0, 0.0, 0.0, 1.7447429025113611E9, 0.0, 2025-04-15 13:48:22.511
180.0, -21082.679460368094, 5871.467992242336, 26673.454245740682, -13415.919353475494, -51500.654399473, 39025.00587999891, -23579.034039859063, 62604.039919857976, -5887.78476569471, -20188.542626922444, -9854.213578011224, 8809.940077059278, 4662.059803254581, 4730.277327332178, 13315.425910404434, -187500.02235174447, -0.108, 0.9480000000000001, 0.23600000000000002, 192.0, 0.0, 0.0, 0.0, 0.0, 0.0, 0.0, 0.0, 0.0, 0.0, 1.744742902520425E9, 0.0, 2025-04-15 13:48:22.520
182.0, -21082.16537024562, 5856.984061835296, 26683.199606323196, -13412.32072261819, -51571.44237416296, 39021.11667646369, -23561.487920461648, 62560.878701314774, -5874.3513672770705, -20166.4591034006, -9871.67029043082, 8815.148033517366, 4651.532131616132, 4716.218080069791, 13255.880863175496, -187500.02235174447, -0.108, 0.9480000000000001, 0.23600000000000002, 192.0, 0.0, 0.0, 0.0, 0.0, 0.0, 0.0, 0.0, 0.0, 0.0, 1.7447429025284314E9, 0.0, 2025-04-15 13:48:22.528
184.0, -21087.038050536878, 5882.152126091973, 26670.74968466159, -13421.261420400313, -51461.807067609676, 39031.08555449075, -23580.553958482025, 62634.080664405905, -5888.455318028369, -20182.686469875156, -9853.207749510735, 8815.684475384292, 4662.819762566061, 4737.921623935893, 13311.313189424658, -187500.02235174447, -0.108, 0.9480000000000001, 0.23600000000000002, 192.0, 0.0, 0.0, 0.0, 0.0, 0.0, 0.0, 0.0, 0.0, 0.0, 1.7447429025355196E9, 0.0, 2025-04-15 13:48:22.535
186.0, -21086.613367392227, 5857.229931024305, 26673.141321318308, -13426.737597791864, -51545.62610931708, 39008.42088561307, -23586.074839362485, 62586.15852429373, -5884.16378309295, -20178.104362261816, -9882.890866147383, 8800.082957754488, 4638.545768087598, 4705.243373542235, 13260.082991133093, -187500.02235174447, -0.108, 0.9480000000000001, 0.23600000000000002, 192.0, 0.0, 0.0, 0.0, 0.0, 0.0, 0.0, 0.0, 0.0, 0.0, 1.7447429025435083E9, 0.0, 2025-04-15 13:48:22.543
188.0, -21084.802876091348, 5896.703111732378, 26675.75647541958, -13428.972772237394, -51434.0909044851, 39024.64825208762, -23592.95917665472, 62654.577214071425, -5881.191001080394, -20181.99356579704, -9853.94535707776, 8811.884678826891, 4665.054937011592, 4730.7243622212845, 13306.038177733206, -187500.02235174447, -0.107, 0.9470000000000001, 0.23600000000000002, 192.0, 126.0, 88.0, 14.5, 72.0, 3.5, 48.0, 0.0, 0.0, 0.0, 1.7447429025525713E9, 0.0, 2025-04-15 13:48:22.552
190.0, -21083.998213290957, 5861.901445615465, 26677.030524853533, -13423.541298334754, -51565.63092060458, 38995.9039087181, -23581.38097302687, 62579.45300095714, -5882.956788892364, -20167.353173178813, -9876.207694555247, 8813.091673027477, 4642.703192556285, 4707.635010198952, 13249.5776712391, -187500.02235174447, -0.107, 0.9470000000000001, 0.23600000000000002, 192.0, 0.0, 0.0, 0.0, 0.0, 0.0, 0.0, 0.0, 0.0, 0.0, 1.7447429025596E9, 0.0, 2025-04-15 13:48:22.559
192.0, -21100.404393721154, 5898.670065244444, 26665.005286336578, -13439.455740386933, -51393.366026087526, 39026.59285385524, -23592.08745862096, 62701.91820882777, -5887.807117439165, -20193.527065935978, -9856.538159434576, 8814.946867817267, 4662.3503759325, 4720.442559771844, 13306.753433555776, -187500.02235174447, -0.107, 0.9470000000000001, 0.23600000000000002, 192.0, 0.0, 0.0, 0.0, 0.0, 0.0, 0.0, 0.0, 0.0, 0.0, 1.7447429025676477E9, 0.0, 2025-04-15 13:48:22.567
194.0, -21088.021527292913, 5851.194960021372, 26668.6933241717, -13429.777435037784, -51552.64455707605, 38984.19159462352, -23592.378031298882, 62606.14098383677, -5888.254152328272, -20183.42407744218, -9888.277636561113, 8799.680626354293, 4638.0987331984925, 4692.346416991522, 13247.074275860105, -187500.02235174447, -0.107, 0.9470000000000001, 0.23600000000000002, 192.0, 0.0, 0.0, 0.0, 0.0, 0.0, 0.0, 0.0, 0.0, 0.0, 1.744742902575682E9, 0.0, 2025-04-15 13:48:22.575
196.0, -21098.66095765364, 5898.513603033257, 26671.464940484162, -13441.936784021473, -51372.84712467756, 39025.63172884366, -23591.05927837602, 62728.829709151956, -5890.31051281816, -20192.99062406905, -9864.182456038292, 8807.436681680285, 4663.602073621997, 4716.039266114148, 13299.556171841166, -187500.02235174447, -0.107, 0.9470000000000001, 0.23600000000000002, 192.0, 0.0, 0.0, 0.0, 0.0, 0.0, 0.0, 0.0, 0.0, 0.0, 1.744742902583742E9, 0.0, 2025-04-15 13:48:22.583
198.0, -21086.591015647773, 5854.927701345408, 26671.107312572876, -13433.711342061919, -51532.81855974419, 38984.07983590124, -23590.321670808993, 62634.19242312818, -5887.874172672531, -20191.56011242391, -9886.444793515777, 8793.55624837354, 4636.757628531173, 4689.686559401341, 13255.702049219854, -187500.02235174447, -0.1085, 0.9495, 0.234, 192.0, 126.0, 72.0, 14.5, 96.0, 3.5, 32.0, 0.0, 0.0, 0.0, 1.7447429025907671E9, 0.0, 2025-04-15 13:48:22.590
200.0, -21099.957358832045, 5906.314361848159, 26678.729257432136, -13436.393551396555, -51350.87535987799, 39029.38682191215, -23571.970888611188, 62753.215462352695, -5884.655521470967, -20187.581501910867, -9861.880226359395, 8812.666989882826, 4659.44464915331, 4714.6981614468295, 13297.186886928903, -187500.02235174447, -0.1085, 0.9495, 0.234, 192.0, 0.0, 0.0, 0.0, 0.0, 0.0, 0.0, 0.0, 0.0, 0.0, 1.7447429025998068E9, 0.0, 2025-04-15 13:48:22.599
202.0, -21095.688175641084, 5851.641994910478, 26658.47857695563, -13434.292487417757, -51478.928503862444, 38986.71734174697, -23594.233226088672, 62678.761801572065, -5889.215277339849, -20187.827371099876, -9881.99679636917, 8797.378396675396, 4635.528282586131, 4695.140385048436, 13258.451313787857, -187500.02235174447, -0.1085, 0.9495, 0.234, 192.0, 0.0, 0.0, 0.0, 0.0, 0.0, 0.0, 0.0, 0.0, 0.0, 1.74474290260788E9, 0.0, 2025-04-15 13:48:22.607
204.0, -21095.822286107814, 5903.051007157685, 26680.18212082173, -13429.308048404224, -51312.49741464823, 39030.951444024024, -23567.67935367577, 62783.50207608964, -5891.338693063104, -20196.388089226257, -9873.257264287146, 8806.07322526851, 4645.295994913101, 4707.724417176773, 13281.026575687716, -187500.02235174447, -0.1085, 0.9495, 0.234, 192.0, 0.0, 0.0, 0.0, 0.0, 0.0, 0.0, 0.0, 0.0, 0.0, 1.7447429026149E9, 0.0, 2025-04-15 13:48:22.614
206.0, -21087.440381937075, 5856.581730435101, 26662.52424270204, -13428.481033859378, -51460.60007340909, 38980.19063236602, -23595.39551680035, 62692.374013945344, -5888.812945939654, -20189.973138567584, -9883.33790103649, 8795.523201885606, 4630.968526717249, 4698.515498461187, 13268.330784837102, -187500.02235174447, -0.1085, 0.9495, 0.234, 192.0, 0.0, 0.0, 0.0, 0.0, 0.0, 0.0, 0.0, 0.0, 0.0, 1.7447429026239555E9, 0.0, 2025-04-15 13:48:22.623
208.0, -21090.435515694084, 5901.732254234821, 26685.166559835263, -13422.267248900802, -51333.06101954711, 39024.26827243189, -23571.74737116663, 62779.97050046569, -5885.013149382252, -20186.083935032362, -9868.518694462622, 8804.575658390006, 4650.146323459902, 4706.964457865293, 13270.700069749364, -187500.02235174447, -0.10825, 0.9477500000000001, 0.233, 192.0, 126.0, 80.0, 14.5, 72.0, 3.5, 32.0, 0.0, 0.0, 0.0, 1.744742902631985E9, 0.0, 2025-04-15 13:48:22.631
210.0, -21092.31306222833, 5861.946149104375, 26666.435797981718, -13428.3692751371, -51453.4475151834, 38983.78926322333, -23598.122429623894, 62714.52459270056, -5878.553495234668, -20180.764219851997, -9863.71306940473, 8808.710731114237, 4642.613785578464, 4709.7137224332955, 13272.622319772521, -187500.02235174447, -0.10825, 0.9477500000000001, 0.233, 192.0, 0.0, 0.0, 0.0, 0.0, 0.0, 0.0, 0.0, 0.0, 0.0, 1.7447429026390247E9, 0.0, 2025-04-15 13:48:22.639
212.0, -21095.75523087445, 5903.45333855788, 26687.021754625053, -13433.599583339643, -51347.20967378732, 39017.69685956203, -23575.167188068295, 62788.35240463643, -5884.029672626219, -20190.53193217897, -9869.815095641028, 8806.341446201974, 4644.446628623799, 4703.701103174818, 13265.335651080091, -187500.02235174447, -0.10825, 0.9477500000000001, 0.233, 192.0, 0.0, 0.0, 0.0, 0.0, 0.0, 0.0, 0.0, 0.0, 0.0, 1.7447429026470888E9, 0.0, 2025-04-15 13:48:22.647
214.0, -21084.333489457786, 5868.182285807406, 26659.46205371166, -13437.198214196947, -51435.70023008588, 38980.39179806612, -23608.426583817793, 62742.7101424587, -5884.543762748691, -20194.979929325575, -9867.62462468441, 8796.529030386095, 4638.366954131956, 4697.800242638617, 13276.265654118735, -187500.02235174447, -0.10825, 0.9477500000000001, 0.233, 192.0, 0.0, 0.0, 0.0, 0.0, 0.0, 0.0, 0.0, 0.0, 0.0, 1.744742902655197E9, 0.0, 2025-04-15 13:48:22.655
216.0, -21082.99238479047, 5896.144318120995, 26690.933309904733, -13421.015551211305, -51398.86455522353, 39005.98454546744, -23564.661868174302, 62766.85002647043, -5868.696375929878, -20179.37841169577, -9866.015299083627, 8808.64367588087, 4646.905320513883, 4698.73901590574, 13246.984868882284, -187500.02235174447, -0.10825, 0.9477500000000001, 0.233, 192.0, 0.0, 0.0, 0.0, 0.0, 0.0, 0.0, 0.0, 0.0, 0.0, 1.7447429026641824E9, 0.0, 2025-04-15 13:48:22.664
218.0, -21085.51813191392, 5872.362062020548, 26666.48050147063, -13428.056350714727, -51476.827439883644, 38971.540507261816, -23599.463534291215, 62721.341874759426, -5878.128812090017, -20190.844856601343, -9858.885092602384, 8804.195678734264, 4650.436896137821, 4703.768158408184, 13280.691299520888, -187500.02235174447, -0.108125, 0.9488750000000001, 0.2285, 192.0, 126.0, 80.0, 14.5, 88.0, 3.5, 0.0, 0.0, 0.0, 0.0, 1.7447429026712E9, 0.0, 2025-04-15 13:48:22.671
220.0, -21084.489951668973, 5888.83529768411, 26689.838074426425, -13422.893097745551, -51494.64178021452, 38989.019571425866, -23566.18178679726, 62707.014406563576, -5869.568093963635, -20171.644708114232, -9866.66349967283, 8816.019751551123, 4647.754686803185, 4696.88382111595, 13248.013049127228, -187500.02235174447, -0.108125, 0.9488750000000001, 0.2285, 192.0, 0.0, 0.0, 0.0, 0.0, 0.0, 0.0, 0.0, 0.0, 0.0, 1.7447429026792517E9, 0.0, 2025-04-15 13:48:22.679
222.0, -21085.31696621382, 5875.871285900032, 26670.101484072387, -13436.728827563385, -51518.3122775927, 38973.641571240616, -23602.279854092583, 62697.20199074769, -5879.000530123774, -20190.6660426457, -9856.895787345862, 8810.185946248288, 4652.694422327808, 4704.282248530656, 13298.48328810731, -187500.02235174447, -0.108125, 0.9488750000000001, 0.2285, 192.0, 0.0, 0.0, 0.0, 0.0, 0.0, 0.0, 0.0, 0.0, 0.0, 1.744742902688286E9, 0.0, 2025-04-15 13:48:22.688
224.0, -21088.35680345974, 5873.92668413242, 26693.682574472736, -13436.147682207547, -51540.731077281365, 38981.464681799975, -23572.19440605574, 62685.71319409767, -5875.893637644486, -20183.535836164458, -9876.252398044158, 8795.210277463231, 4642.926710000838, 4680.768213363674, 13249.66707821692, -187500.02235174447, -0.108125, 0.9488750000000001, 0.2285, 192.0, 0.0, 0.0, 0.0, 0.0, 0.0, 0.0, 0.0, 0.0, 0.0, 1.7447429026953108E9, 0.0, 2025-04-15 13:48:22.695
226.0, -21082.45594292354, 5873.479649243313, 26679.13158883233, -13436.572365352198, -51538.74177202485, 38973.23923984042, -23600.223493602694, 62685.28851095302, -5870.708032930856, -20194.979929325575, -9852.626604154899, 8802.496946155661, 4658.952910775293, 4699.521326961676, 13293.34238688259, -187500.02235174447, -0.108125, 0.9488750000000001, 0.2285, 192.0, 0.0, 0.0, 0.0, 0.0, 0.0, 0.0, 0.0, 0.0, 0.0, 1.744742902703369E9, 0.0, 2025-04-15 13:48:22.703
228.0, -21076.1751027316, 5873.680814943411, 26701.19276060972, -13420.434405855467, -51629.087523113194, 38980.123577132654, -23573.110827578406, 62632.1807661272, -5868.11523057404, -20176.830312827864, -9869.636281685387, 8801.915800799823, 4647.8440937810055, 4682.399890708911, 13236.501900732745, -187500.02235174447, -0.11006250000000001, 0.9474375000000002, 0.22525, 192.0, 126.0, 64.0, 14.5, 72.0, 3.0, 120.0, 0.0, 0.0, 0.0, 1.744742902711404E9, 0.0, 2025-04-15 13:48:22.711
230.0, -21077.247986465452, 5885.236666826805, 26695.537769262526, -13425.843528013651, -51597.75037738686, 38991.321801104765, -23591.774534198586, 62656.07478094993, -5868.048175340674, -20186.776839110476, -9840.646069126853, 8811.83997533798, 4666.731317845741, 4713.044132357137, 13299.757337541263, -187500.02235174447, -0.11006250000000001, 0.9474375000000002, 0.22525, 192.0, 0.0, 0.0, 0.0, 0.0, 0.0, 0.0, 0.0, 0.0, 0.0, 1.7447429027194414E9, 0.0, 2025-04-15 13:48:22.719
232.0, -21077.60561437674, 5856.6264339240115, 26713.508571804592, -13416.925181975983, -51725.24472775993, 38980.52590853285, -23563.253708273616, 62584.54919869295, -5868.718727674333, -20173.924586048674, -9870.038613085582, 8806.274390968609, 4648.581701348031, 4685.3503209770115, 13242.559223480133, -187500.02235174447, -0.11006250000000001, 0.9474375000000002, 0.22525, 192.0, 0.0, 0.0, 0.0, 0.0, 0.0, 0.0, 0.0, 0.0, 0.0, 1.7447429027284722E9, 0.0, 2025-04-15 13:48:22.728
234.0, -21094.816457607325, 5875.536009733201, 26698.689365230726, -13429.33040014868, -51644.37611632063, 38998.42965584155, -23583.817313172498, 62650.35273436937, -5878.642902212489, -20185.972176310086, -9845.921080818305, 8812.041141038078, 4668.050070768603, 4714.385237024455, 13303.378320143023, -187500.02235174447, -0.11006250000000001, 0.9474375000000002, 0.22525, 192.0, 0.0, 0.0, 0.0, 0.0, 0.0, 0.0, 0.0, 0.0, 0.0, 1.7447429027355132E9, 0.0, 2025-04-15 13:48:22.735
236.0, -21082.522998156906, 5851.105553043551, 26710.04405141402, -13416.433443597967, -51826.051095253366, 38962.95743739098, -23563.723094907178, 62539.935116760156, -5864.583654950101, -20168.716629590588, -9876.4312119998, 8798.540687387072, 4645.0277739796375, 4687.719605889274, 13235.339610021068, -187500.02235174447, -0.11006250000000001, 0.9474375000000002, 0.22525, 192.0, 0.0, 0.0, 0.0, 0.0, 0.0, 0.0, 0.0, 0.0, 0.0, 1.7447429027435534E9, 0.0, 2025-04-15 13:48:22.743
238.0, -21110.9320653596, 5870.775088164221, 26703.42793505525, -13435.164205451514, -51714.98527705494, 38988.70664700349, -23579.414019514803, 62626.43636780219, -5878.30762604566, -20186.508618177013, -9846.23400524068, 8809.336579958985, 4671.82751558155, 4709.870184644483, 13302.797174787185, -187500.02235174447, -0.11403125, 0.94871875, 0.22362500000000002, 192.0, 126.0, 40.0, 14.5, 88.0, 3.0, 120.0, 0.0, 0.0, 0.0, 1.744742902751588E9, 0.0, 2025-04-15 13:48:22.751
240.0, -21131.18274583611, 5803.7198547983, 26693.302594816996, -13434.426597884489, -51877.43775575612, 38959.4929170004, -23569.5121967211, 62546.975916263575, -5895.78669020971, -20195.158743281216, -9886.109517348948, 8781.128678456387, 4638.031677965126, 4669.413527180377, 13245.15202583695, -187500.02235174447, -0.11403125, 0.94871875, 0.22362500000000002, 192.0, 0.0, 0.0, 0.0, 0.0, 0.0, 0.0, 0.0, 0.0, 0.0, 1.7447429027596412E9, 0.0, 2025-04-15 13:48:22.759
242.0, -21147.61127801076, 5835.7275528582995, 26708.99351942462, -13422.490766345354, -51763.42150728959, 39003.57055706627, -23564.661868174302, 62636.85228071836, -5906.895507203997, -20205.77582189749, -9867.490514217678, 8789.801155305047, 4658.170599719358, 4699.4989752172205, 13302.908933509461, -187500.02235174447, -0.11403125, 0.94871875, 0.22362500000000002, 192.0, 0.0, 0.0, 0.0, 0.0, 0.0, 0.0, 0.0, 0.0, 0.0, 1.7447429027677023E9, 0.0, 2025-04-15 13:48:22.767
244.0, -21179.551920837395, 5762.927921167365, 26702.75738272159, -13420.188536666457, -51946.95168101212, 38968.031283382334, -23566.874690875375, 62543.75726506201, -5914.450396829891, -20195.00228107003, -9890.199886584269, 8784.190867446765, 4638.2775471541345, 4687.361977977989, 13256.841988187074, -187500.02235174447, -0.11403125, 0.94871875, 0.22362500000000002, 192.0, 0.0, 0.0, 0.0, 0.0, 0.0, 0.0, 0.0, 0.0, 0.0, 1.7447429027747464E9, 0.0, 2025-04-15 13:48:22.774
246.0, -21212.073709019867, 5768.113525880996, 26711.206342125697, -13422.736635534364, -51825.7828743199, 39008.443237357526, -23557.688123904245, 62634.10301615036, -5936.623327329556, -20211.631978944777, -9880.05219460156, 8780.659291822827, 4655.264872940168, 4706.807995654106, 13299.511468352255, -187500.02235174447, -0.11403125, 0.94871875, 0.22362500000000002, 192.0, 0.0, 0.0, 0.0, 0.0, 0.0, 0.0, 0.0, 0.0, 0.0, 1.744742902782734E9, 0.0, 2025-04-15 13:48:22.782
248.0, -21268.802436447437, 5662.322719374028, 26687.491141258615, -13430.872670516095, -51994.71735891311, 38969.39473979411, -23574.317821778994, 62548.42877965317, -5960.204417729905, -20222.00318837204, -9916.35142759698, 8755.49122756615, 4631.5273203286315, 4683.629236653953, 13259.993584155272, -187500.02235174447, -0.11403125, 0.94871875, 0.22362500000000002, 192.0, 0.0, 0.0, 0.0, 0.0, 0.0, 0.0, 0.0, 0.0, 0.0, 1.74474290279178E9, 0.0, 2025-04-15 13:48:22.791
250.0, -21328.8839255433, 5652.107972157953, 26694.487237273126, -13427.966943736905, -51863.31145326036, 39016.3110514058, -23556.302315748017, 62640.71913250913, -6002.873897895086, -20234.76603445602, -9920.173575898836, 8751.534968797561, 4641.116218699958, 4705.3104287756005, 13287.083898435105, -187500.02235174447, -0.11800000000000001, 0.9520000000000001, 0.23, 192.0, 126.0, 40.0, 14.5, 96.0, 3.5, 24.0, 0.0, 0.0, 0.0, 1.7447429027998369E9, 0.0, 2025-04-15 13:48:22.799
